Created as New Dataset,Sample 002 By Administrator Date Monday, June 09 2025
cm-1,A
4000.00,0.0054
3999.00,0.0054
3998.00,0.0054
3997.00,0.0054
3996.00,0.0054
3995.00,0.0054
3994.00,0.0054
3993.00,0.0054
3992.00,0.0054
3991.00,0.0054
3990.00,0.0054
3989.00,0.0054
3988.00,0.0054
3987.00,0.0054
3986.00,0.0055
3985.00,0.0055
3984.00,0.0055
3983.00,0.0054
3982.00,0.0054
3981.00,0.0054
3980.00,0.0054
3979.00,0.0054
3978.00,0.0054
3977.00,0.0055
3976.00,0.0055
3975.00,0.0055
3974.00,0.0055
3973.00,0.0055
3972.00,0.0055
3971.00,0.0056
3970.00,0.0056
3969.00,0.0056
3968.00,0.0055
3967.00,0.0055
3966.00,0.0055
3965.00,0.0055
3964.00,0.0055
3963.00,0.0055
3962.00,0.0055
3961.00,0.0055
3960.00,0.0055
3959.00,0.0055
3958.00,0.0055
3957.00,0.0055
3956.00,0.0055
3955.00,0.0055
3954.00,0.0055
3953.00,0.0055
3952.00,0.0055
3951.00,0.0055
3950.00,0.0055
3949.00,0.0055
3948.00,0.0055
3947.00,0.0055
3946.00,0.0056
3945.00,0.0056
3944.00,0.0056
3943.00,0.0056
3942.00,0.0056
3941.00,0.0056
3940.00,0.0055
3939.00,0.0055
3938.00,0.0056
3937.00,0.0056
3936.00,0.0056
3935.00,0.0056
3934.00,0.0056
3933.00,0.0056
3932.00,0.0056
3931.00,0.0055
3930.00,0.0055
3929.00,0.0055
3928.00,0.0056
3927.00,0.0056
3926.00,0.0056
3925.00,0.0056
3924.00,0.0056
3923.00,0.0056
3922.00,0.0056
3921.00,0.0056
3920.00,0.0056
3919.00,0.0056
3918.00,0.0056
3917.00,0.0055
3916.00,0.0055
3915.00,0.0054
3914.00,0.0054
3913.00,0.0054
3912.00,0.0054
3911.00,0.0055
3910.00,0.0055
3909.00,0.0055
3908.00,0.0055
3907.00,0.0056
3906.00,0.0057
3905.00,0.0057
3904.00,0.0057
3903.00,0.0057
3902.00,0.0057
3901.00,0.0056
3900.00,0.0056
3899.00,0.0055
3898.00,0.0055
3897.00,0.0055
3896.00,0.0055
3895.00,0.0055
3894.00,0.0055
3893.00,0.0056
3892.00,0.0055
3891.00,0.0055
3890.00,0.0055
3889.00,0.0056
3888.00,0.0056
3887.00,0.0057
3886.00,0.0057
3885.00,0.0057
3884.00,0.0057
3883.00,0.0057
3882.00,0.0056
3881.00,0.0056
3880.00,0.0055
3879.00,0.0055
3878.00,0.0055
3877.00,0.0056
3876.00,0.0056
3875.00,0.0056
3874.00,0.0056
3873.00,0.0056
3872.00,0.0057
3871.00,0.0057
3870.00,0.0057
3869.00,0.0057
3868.00,0.0056
3867.00,0.0056
3866.00,0.0057
3865.00,0.0056
3864.00,0.0056
3863.00,0.0055
3862.00,0.0055
3861.00,0.0055
3860.00,0.0055
3859.00,0.0056
3858.00,0.0056
3857.00,0.0057
3856.00,0.0057
3855.00,0.0058
3854.00,0.0058
3853.00,0.0057
3852.00,0.0056
3851.00,0.0056
3850.00,0.0055
3849.00,0.0055
3848.00,0.0055
3847.00,0.0055
3846.00,0.0055
3845.00,0.0056
3844.00,0.0056
3843.00,0.0057
3842.00,0.0057
3841.00,0.0058
3840.00,0.0058
3839.00,0.0057
3838.00,0.0057
3837.00,0.0056
3836.00,0.0056
3835.00,0.0056
3834.00,0.0055
3833.00,0.0056
3832.00,0.0056
3831.00,0.0056
3830.00,0.0056
3829.00,0.0055
3828.00,0.0055
3827.00,0.0056
3826.00,0.0056
3825.00,0.0057
3824.00,0.0058
3823.00,0.0058
3822.00,0.0058
3821.00,0.0058
3820.00,0.0058
3819.00,0.0058
3818.00,0.0057
3817.00,0.0057
3816.00,0.0056
3815.00,0.0056
3814.00,0.0055
3813.00,0.0055
3812.00,0.0055
3811.00,0.0055
3810.00,0.0056
3809.00,0.0056
3808.00,0.0056
3807.00,0.0057
3806.00,0.0057
3805.00,0.0057
3804.00,0.0058
3803.00,0.0058
3802.00,0.0058
3801.00,0.0058
3800.00,0.0058
3799.00,0.0058
3798.00,0.0058
3797.00,0.0057
3796.00,0.0057
3795.00,0.0057
3794.00,0.0057
3793.00,0.0057
3792.00,0.0057
3791.00,0.0057
3790.00,0.0057
3789.00,0.0057
3788.00,0.0057
3787.00,0.0058
3786.00,0.0058
3785.00,0.0058
3784.00,0.0058
3783.00,0.0058
3782.00,0.0058
3781.00,0.0059
3780.00,0.0059
3779.00,0.0059
3778.00,0.0059
3777.00,0.0059
3776.00,0.0059
3775.00,0.0059
3774.00,0.0059
3773.00,0.0059
3772.00,0.0060
3771.00,0.0060
3770.00,0.0060
3769.00,0.0060
3768.00,0.0061
3767.00,0.0061
3766.00,0.0061
3765.00,0.0061
3764.00,0.0061
3763.00,0.0061
3762.00,0.0062
3761.00,0.0062
3760.00,0.0062
3759.00,0.0062
3758.00,0.0063
3757.00,0.0063
3756.00,0.0063
3755.00,0.0064
3754.00,0.0065
3753.00,0.0066
3752.00,0.0066
3751.00,0.0067
3750.00,0.0067
3749.00,0.0067
3748.00,0.0067
3747.00,0.0067
3746.00,0.0066
3745.00,0.0066
3744.00,0.0066
3743.00,0.0067
3742.00,0.0067
3741.00,0.0067
3740.00,0.0068
3739.00,0.0068
3738.00,0.0068
3737.00,0.0069
3736.00,0.0069
3735.00,0.0069
3734.00,0.0068
3733.00,0.0068
3732.00,0.0067
3731.00,0.0068
3730.00,0.0068
3729.00,0.0068
3728.00,0.0069
3727.00,0.0069
3726.00,0.0069
3725.00,0.0070
3724.00,0.0070
3723.00,0.0070
3722.00,0.0071
3721.00,0.0071
3720.00,0.0071
3719.00,0.0072
3718.00,0.0072
3717.00,0.0073
3716.00,0.0074
3715.00,0.0075
3714.00,0.0075
3713.00,0.0076
3712.00,0.0077
3711.00,0.0077
3710.00,0.0078
3709.00,0.0078
3708.00,0.0079
3707.00,0.0079
3706.00,0.0080
3705.00,0.0080
3704.00,0.0081
3703.00,0.0082
3702.00,0.0083
3701.00,0.0083
3700.00,0.0084
3699.00,0.0085
3698.00,0.0086
3697.00,0.0087
3696.00,0.0088
3695.00,0.0089
3694.00,0.0091
3693.00,0.0093
3692.00,0.0094
3691.00,0.0096
3690.00,0.0098
3689.00,0.0099
3688.00,0.0102
3687.00,0.0104
3686.00,0.0105
3685.00,0.0107
3684.00,0.0108
3683.00,0.0110
3682.00,0.0112
3681.00,0.0114
3680.00,0.0116
3679.00,0.0119
3678.00,0.0121
3677.00,0.0125
3676.00,0.0128
3675.00,0.0132
3674.00,0.0135
3673.00,0.0137
3672.00,0.0140
3671.00,0.0143
3670.00,0.0146
3669.00,0.0149
3668.00,0.0153
3667.00,0.0156
3666.00,0.0159
3665.00,0.0162
3664.00,0.0166
3663.00,0.0169
3662.00,0.0173
3661.00,0.0177
3660.00,0.0181
3659.00,0.0185
3658.00,0.0190
3657.00,0.0195
3656.00,0.0200
3655.00,0.0206
3654.00,0.0211
3653.00,0.0216
3652.00,0.0221
3651.00,0.0226
3650.00,0.0232
3649.00,0.0240
3648.00,0.0248
3647.00,0.0255
3646.00,0.0261
3645.00,0.0267
3644.00,0.0272
3643.00,0.0277
3642.00,0.0282
3641.00,0.0288
3640.00,0.0294
3639.00,0.0300
3638.00,0.0306
3637.00,0.0312
3636.00,0.0319
3635.00,0.0326
3634.00,0.0332
3633.00,0.0339
3632.00,0.0345
3631.00,0.0350
3630.00,0.0358
3629.00,0.0368
3628.00,0.0380
3627.00,0.0390
3626.00,0.0398
3625.00,0.0404
3624.00,0.0409
3623.00,0.0414
3622.00,0.0419
3621.00,0.0426
3620.00,0.0434
3619.00,0.0444
3618.00,0.0454
3617.00,0.0463
3616.00,0.0471
3615.00,0.0477
3614.00,0.0484
3613.00,0.0491
3612.00,0.0498
3611.00,0.0505
3610.00,0.0513
3609.00,0.0522
3608.00,0.0531
3607.00,0.0540
3606.00,0.0548
3605.00,0.0555
3604.00,0.0561
3603.00,0.0568
3602.00,0.0575
3601.00,0.0582
3600.00,0.0589
3599.00,0.0597
3598.00,0.0605
3597.00,0.0613
3596.00,0.0621
3595.00,0.0630
3594.00,0.0638
3593.00,0.0646
3592.00,0.0653
3591.00,0.0659
3590.00,0.0665
3589.00,0.0672
3588.00,0.0681
3587.00,0.0692
3586.00,0.0703
3585.00,0.0712
3584.00,0.0720
3583.00,0.0727
3582.00,0.0733
3581.00,0.0739
3580.00,0.0745
3579.00,0.0752
3578.00,0.0760
3577.00,0.0768
3576.00,0.0776
3575.00,0.0784
3574.00,0.0792
3573.00,0.0799
3572.00,0.0806
3571.00,0.0812
3570.00,0.0817
3569.00,0.0824
3568.00,0.0832
3567.00,0.0843
3566.00,0.0855
3565.00,0.0866
3564.00,0.0876
3563.00,0.0883
3562.00,0.0890
3561.00,0.0896
3560.00,0.0903
3559.00,0.0909
3558.00,0.0916
3557.00,0.0923
3556.00,0.0929
3555.00,0.0936
3554.00,0.0943
3553.00,0.0951
3552.00,0.0960
3551.00,0.0969
3550.00,0.0977
3549.00,0.0984
3548.00,0.0992
3547.00,0.0999
3546.00,0.1008
3545.00,0.1017
3544.00,0.1025
3543.00,0.1033
3542.00,0.1040
3541.00,0.1046
3540.00,0.1053
3539.00,0.1059
3538.00,0.1066
3537.00,0.1073
3536.00,0.1080
3535.00,0.1088
3534.00,0.1095
3533.00,0.1102
3532.00,0.1108
3531.00,0.1115
3530.00,0.1122
3529.00,0.1129
3528.00,0.1137
3527.00,0.1145
3526.00,0.1154
3525.00,0.1162
3524.00,0.1170
3523.00,0.1177
3522.00,0.1184
3521.00,0.1191
3520.00,0.1198
3519.00,0.1205
3518.00,0.1212
3517.00,0.1219
3516.00,0.1226
3515.00,0.1233
3514.00,0.1239
3513.00,0.1245
3512.00,0.1251
3511.00,0.1257
3510.00,0.1264
3509.00,0.1272
3508.00,0.1280
3507.00,0.1287
3506.00,0.1293
3505.00,0.1300
3504.00,0.1307
3503.00,0.1314
3502.00,0.1323
3501.00,0.1331
3500.00,0.1339
3499.00,0.1345
3498.00,0.1352
3497.00,0.1358
3496.00,0.1364
3495.00,0.1371
3494.00,0.1377
3493.00,0.1384
3492.00,0.1391
3491.00,0.1398
3490.00,0.1405
3489.00,0.1412
3488.00,0.1419
3487.00,0.1426
3486.00,0.1433
3485.00,0.1438
3484.00,0.1444
3483.00,0.1451
3482.00,0.1459
3481.00,0.1467
3480.00,0.1474
3479.00,0.1482
3478.00,0.1488
3477.00,0.1495
3476.00,0.1501
3475.00,0.1507
3474.00,0.1514
3473.00,0.1521
3472.00,0.1529
3471.00,0.1536
3470.00,0.1544
3469.00,0.1551
3468.00,0.1557
3467.00,0.1563
3466.00,0.1569
3465.00,0.1575
3464.00,0.1581
3463.00,0.1587
3462.00,0.1594
3461.00,0.1601
3460.00,0.1608
3459.00,0.1614
3458.00,0.1619
3457.00,0.1625
3456.00,0.1631
3455.00,0.1638
3454.00,0.1644
3453.00,0.1651
3452.00,0.1657
3451.00,0.1663
3450.00,0.1668
3449.00,0.1674
3448.00,0.1680
3447.00,0.1687
3446.00,0.1695
3445.00,0.1703
3444.00,0.1710
3443.00,0.1717
3442.00,0.1724
3441.00,0.1730
3440.00,0.1736
3439.00,0.1743
3438.00,0.1749
3437.00,0.1755
3436.00,0.1760
3435.00,0.1766
3434.00,0.1771
3433.00,0.1777
3432.00,0.1783
3431.00,0.1789
3430.00,0.1795
3429.00,0.1801
3428.00,0.1806
3427.00,0.1811
3426.00,0.1816
3425.00,0.1822
3424.00,0.1827
3423.00,0.1832
3422.00,0.1838
3421.00,0.1844
3420.00,0.1851
3419.00,0.1857
3418.00,0.1863
3417.00,0.1869
3416.00,0.1874
3415.00,0.1879
3414.00,0.1885
3413.00,0.1890
3412.00,0.1895
3411.00,0.1900
3410.00,0.1904
3409.00,0.1909
3408.00,0.1913
3407.00,0.1917
3406.00,0.1922
3405.00,0.1927
3404.00,0.1933
3403.00,0.1938
3402.00,0.1943
3401.00,0.1947
3400.00,0.1951
3399.00,0.1954
3398.00,0.1957
3397.00,0.1961
3396.00,0.1964
3395.00,0.1968
3394.00,0.1972
3393.00,0.1976
3392.00,0.1979
3391.00,0.1983
3390.00,0.1985
3389.00,0.1987
3388.00,0.1989
3387.00,0.1991
3386.00,0.1993
3385.00,0.1995
3384.00,0.1998
3383.00,0.2000
3382.00,0.2003
3381.00,0.2005
3380.00,0.2007
3379.00,0.2009
3378.00,0.2011
3377.00,0.2013
3376.00,0.2015
3375.00,0.2016
3374.00,0.2018
3373.00,0.2020
3372.00,0.2022
3371.00,0.2024
3370.00,0.2027
3369.00,0.2028
3368.00,0.2029
3367.00,0.2030
3366.00,0.2030
3365.00,0.2031
3364.00,0.2031
3363.00,0.2032
3362.00,0.2033
3361.00,0.2033
3360.00,0.2033
3359.00,0.2033
3358.00,0.2033
3357.00,0.2034
3356.00,0.2034
3355.00,0.2035
3354.00,0.2035
3353.00,0.2036
3352.00,0.2036
3351.00,0.2037
3350.00,0.2037
3349.00,0.2036
3348.00,0.2036
3347.00,0.2035
3346.00,0.2034
3345.00,0.2034
3344.00,0.2034
3343.00,0.2034
3342.00,0.2034
3341.00,0.2034
3340.00,0.2034
3339.00,0.2033
3338.00,0.2032
3337.00,0.2032
3336.00,0.2031
3335.00,0.2031
3334.00,0.2030
3333.00,0.2030
3332.00,0.2029
3331.00,0.2028
3330.00,0.2027
3329.00,0.2026
3328.00,0.2026
3327.00,0.2025
3326.00,0.2025
3325.00,0.2024
3324.00,0.2023
3323.00,0.2022
3322.00,0.2021
3321.00,0.2020
3320.00,0.2020
3319.00,0.2019
3318.00,0.2019
3317.00,0.2018
3316.00,0.2017
3315.00,0.2016
3314.00,0.2015
3313.00,0.2014
3312.00,0.2013
3311.00,0.2012
3310.00,0.2010
3309.00,0.2009
3308.00,0.2008
3307.00,0.2007
3306.00,0.2006
3305.00,0.2004
3304.00,0.2002
3303.00,0.2000
3302.00,0.1999
3301.00,0.1997
3300.00,0.1995
3299.00,0.1993
3298.00,0.1991
3297.00,0.1988
3296.00,0.1986
3295.00,0.1984
3294.00,0.1982
3293.00,0.1980
3292.00,0.1978
3291.00,0.1976
3290.00,0.1974
3289.00,0.1973
3288.00,0.1971
3287.00,0.1968
3286.00,0.1966
3285.00,0.1963
3284.00,0.1960
3283.00,0.1958
3282.00,0.1955
3281.00,0.1952
3280.00,0.1948
3279.00,0.1945
3278.00,0.1942
3277.00,0.1939
3276.00,0.1935
3275.00,0.1932
3274.00,0.1929
3273.00,0.1925
3272.00,0.1921
3271.00,0.1917
3270.00,0.1914
3269.00,0.1910
3268.00,0.1906
3267.00,0.1902
3266.00,0.1898
3265.00,0.1894
3264.00,0.1890
3263.00,0.1886
3262.00,0.1882
3261.00,0.1877
3260.00,0.1872
3259.00,0.1868
3258.00,0.1863
3257.00,0.1858
3256.00,0.1853
3255.00,0.1848
3254.00,0.1843
3253.00,0.1838
3252.00,0.1833
3251.00,0.1828
3250.00,0.1823
3249.00,0.1818
3248.00,0.1813
3247.00,0.1807
3246.00,0.1802
3245.00,0.1797
3244.00,0.1793
3243.00,0.1789
3242.00,0.1784
3241.00,0.1778
3240.00,0.1773
3239.00,0.1767
3238.00,0.1761
3237.00,0.1756
3236.00,0.1750
3235.00,0.1744
3234.00,0.1739
3233.00,0.1733
3232.00,0.1728
3231.00,0.1722
3230.00,0.1717
3229.00,0.1711
3228.00,0.1705
3227.00,0.1699
3226.00,0.1693
3225.00,0.1687
3224.00,0.1681
3223.00,0.1674
3222.00,0.1668
3221.00,0.1662
3220.00,0.1656
3219.00,0.1649
3218.00,0.1643
3217.00,0.1637
3216.00,0.1631
3215.00,0.1626
3214.00,0.1620
3213.00,0.1614
3212.00,0.1607
3211.00,0.1601
3210.00,0.1595
3209.00,0.1588
3208.00,0.1581
3207.00,0.1574
3206.00,0.1566
3205.00,0.1559
3204.00,0.1552
3203.00,0.1544
3202.00,0.1537
3201.00,0.1529
3200.00,0.1522
3199.00,0.1515
3198.00,0.1508
3197.00,0.1502
3196.00,0.1495
3195.00,0.1488
3194.00,0.1481
3193.00,0.1473
3192.00,0.1465
3191.00,0.1458
3190.00,0.1450
3189.00,0.1442
3188.00,0.1434
3187.00,0.1427
3186.00,0.1420
3185.00,0.1413
3184.00,0.1406
3183.00,0.1399
3182.00,0.1391
3181.00,0.1384
3180.00,0.1376
3179.00,0.1369
3178.00,0.1361
3177.00,0.1354
3176.00,0.1346
3175.00,0.1339
3174.00,0.1331
3173.00,0.1323
3172.00,0.1315
3171.00,0.1308
3170.00,0.1300
3169.00,0.1292
3168.00,0.1284
3167.00,0.1276
3166.00,0.1268
3165.00,0.1261
3164.00,0.1253
3163.00,0.1245
3162.00,0.1238
3161.00,0.1230
3160.00,0.1222
3159.00,0.1214
3158.00,0.1207
3157.00,0.1200
3156.00,0.1192
3155.00,0.1185
3154.00,0.1178
3153.00,0.1171
3152.00,0.1163
3151.00,0.1156
3150.00,0.1148
3149.00,0.1141
3148.00,0.1133
3147.00,0.1126
3146.00,0.1119
3145.00,0.1112
3144.00,0.1106
3143.00,0.1099
3142.00,0.1092
3141.00,0.1085
3140.00,0.1079
3139.00,0.1071
3138.00,0.1064
3137.00,0.1057
3136.00,0.1050
3135.00,0.1043
3134.00,0.1037
3133.00,0.1030
3132.00,0.1023
3131.00,0.1017
3130.00,0.1010
3129.00,0.1004
3128.00,0.0997
3127.00,0.0991
3126.00,0.0985
3125.00,0.0979
3124.00,0.0973
3123.00,0.0968
3122.00,0.0962
3121.00,0.0956
3120.00,0.0950
3119.00,0.0944
3118.00,0.0938
3117.00,0.0932
3116.00,0.0926
3115.00,0.0920
3114.00,0.0915
3113.00,0.0909
3112.00,0.0904
3111.00,0.0899
3110.00,0.0894
3109.00,0.0889
3108.00,0.0884
3107.00,0.0879
3106.00,0.0874
3105.00,0.0869
3104.00,0.0863
3103.00,0.0858
3102.00,0.0853
3101.00,0.0849
3100.00,0.0844
3099.00,0.0840
3098.00,0.0835
3097.00,0.0830
3096.00,0.0825
3095.00,0.0820
3094.00,0.0816
3093.00,0.0812
3092.00,0.0808
3091.00,0.0803
3090.00,0.0799
3089.00,0.0795
3088.00,0.0791
3087.00,0.0787
3086.00,0.0783
3085.00,0.0779
3084.00,0.0775
3083.00,0.0770
3082.00,0.0766
3081.00,0.0761
3080.00,0.0756
3079.00,0.0753
3078.00,0.0749
3077.00,0.0746
3076.00,0.0742
3075.00,0.0738
3074.00,0.0734
3073.00,0.0730
3072.00,0.0726
3071.00,0.0722
3070.00,0.0718
3069.00,0.0714
3068.00,0.0710
3067.00,0.0705
3066.00,0.0701
3065.00,0.0697
3064.00,0.0693
3063.00,0.0689
3062.00,0.0685
3061.00,0.0682
3060.00,0.0678
3059.00,0.0674
3058.00,0.0669
3057.00,0.0665
3056.00,0.0661
3055.00,0.0657
3054.00,0.0652
3053.00,0.0648
3052.00,0.0643
3051.00,0.0638
3050.00,0.0634
3049.00,0.0630
3048.00,0.0626
3047.00,0.0622
3046.00,0.0618
3045.00,0.0614
3044.00,0.0610
3043.00,0.0606
3042.00,0.0603
3041.00,0.0599
3040.00,0.0594
3039.00,0.0590
3038.00,0.0586
3037.00,0.0582
3036.00,0.0579
3035.00,0.0576
3034.00,0.0573
3033.00,0.0569
3032.00,0.0566
3031.00,0.0562
3030.00,0.0559
3029.00,0.0555
3028.00,0.0552
3027.00,0.0548
3026.00,0.0545
3025.00,0.0542
3024.00,0.0538
3023.00,0.0536
3022.00,0.0533
3021.00,0.0530
3020.00,0.0527
3019.00,0.0524
3018.00,0.0521
3017.00,0.0518
3016.00,0.0515
3015.00,0.0512
3014.00,0.0510
3013.00,0.0507
3012.00,0.0505
3011.00,0.0503
3010.00,0.0501
3009.00,0.0499
3008.00,0.0497
3007.00,0.0495
3006.00,0.0492
3005.00,0.0491
3004.00,0.0489
3003.00,0.0487
3002.00,0.0486
3001.00,0.0484
3000.00,0.0483
2999.00,0.0482
2998.00,0.0481
2997.00,0.0480
2996.00,0.0480
2995.00,0.0479
2994.00,0.0478
2993.00,0.0478
2992.00,0.0478
2991.00,0.0478
2990.00,0.0478
2989.00,0.0478
2988.00,0.0479
2987.00,0.0479
2986.00,0.0480
2985.00,0.0481
2984.00,0.0482
2983.00,0.0483
2982.00,0.0484
2981.00,0.0485
2980.00,0.0486
2979.00,0.0488
2978.00,0.0489
2977.00,0.0491
2976.00,0.0493
2975.00,0.0495
2974.00,0.0497
2973.00,0.0499
2972.00,0.0501
2971.00,0.0503
2970.00,0.0504
2969.00,0.0506
2968.00,0.0507
2967.00,0.0509
2966.00,0.0511
2965.00,0.0512
2964.00,0.0513
2963.00,0.0513
2962.00,0.0513
2961.00,0.0513
2960.00,0.0513
2959.00,0.0513
2958.00,0.0513
2957.00,0.0512
2956.00,0.0511
2955.00,0.0509
2954.00,0.0507
2953.00,0.0506
2952.00,0.0504
2951.00,0.0503
2950.00,0.0502
2949.00,0.0500
2948.00,0.0499
2947.00,0.0498
2946.00,0.0498
2945.00,0.0498
2944.00,0.0498
2943.00,0.0498
2942.00,0.0499
2941.00,0.0499
2940.00,0.0499
2939.00,0.0499
2938.00,0.0500
2937.00,0.0500
2936.00,0.0501
2935.00,0.0501
2934.00,0.0502
2933.00,0.0502
2932.00,0.0502
2931.00,0.0501
2930.00,0.0501
2929.00,0.0500
2928.00,0.0500
2927.00,0.0500
2926.00,0.0499
2925.00,0.0499
2924.00,0.0497
2923.00,0.0496
2922.00,0.0493
2921.00,0.0491
2920.00,0.0488
2919.00,0.0485
2918.00,0.0482
2917.00,0.0478
2916.00,0.0474
2915.00,0.0470
2914.00,0.0465
2913.00,0.0461
2912.00,0.0458
2911.00,0.0454
2910.00,0.0450
2909.00,0.0447
2908.00,0.0444
2907.00,0.0441
2906.00,0.0438
2905.00,0.0435
2904.00,0.0432
2903.00,0.0429
2902.00,0.0427
2901.00,0.0424
2900.00,0.0421
2899.00,0.0418
2898.00,0.0415
2897.00,0.0412
2896.00,0.0410
2895.00,0.0407
2894.00,0.0404
2893.00,0.0402
2892.00,0.0399
2891.00,0.0396
2890.00,0.0394
2889.00,0.0391
2888.00,0.0389
2887.00,0.0386
2886.00,0.0383
2885.00,0.0381
2884.00,0.0379
2883.00,0.0378
2882.00,0.0376
2881.00,0.0374
2880.00,0.0373
2879.00,0.0371
2878.00,0.0369
2877.00,0.0367
2876.00,0.0365
2875.00,0.0364
2874.00,0.0362
2873.00,0.0360
2872.00,0.0357
2871.00,0.0355
2870.00,0.0352
2869.00,0.0349
2868.00,0.0345
2867.00,0.0342
2866.00,0.0339
2865.00,0.0337
2864.00,0.0334
2863.00,0.0332
2862.00,0.0331
2861.00,0.0329
2860.00,0.0328
2859.00,0.0328
2858.00,0.0327
2857.00,0.0326
2856.00,0.0325
2855.00,0.0324
2854.00,0.0324
2853.00,0.0322
2852.00,0.0321
2851.00,0.0318
2850.00,0.0315
2849.00,0.0311
2848.00,0.0307
2847.00,0.0302
2846.00,0.0298
2845.00,0.0293
2844.00,0.0289
2843.00,0.0285
2842.00,0.0281
2841.00,0.0278
2840.00,0.0275
2839.00,0.0272
2838.00,0.0270
2837.00,0.0267
2836.00,0.0266
2835.00,0.0264
2834.00,0.0262
2833.00,0.0260
2832.00,0.0259
2831.00,0.0257
2830.00,0.0255
2829.00,0.0254
2828.00,0.0253
2827.00,0.0251
2826.00,0.0250
2825.00,0.0248
2824.00,0.0247
2823.00,0.0245
2822.00,0.0243
2821.00,0.0242
2820.00,0.0240
2819.00,0.0239
2818.00,0.0237
2817.00,0.0236
2816.00,0.0235
2815.00,0.0234
2814.00,0.0233
2813.00,0.0232
2812.00,0.0231
2811.00,0.0230
2810.00,0.0228
2809.00,0.0227
2808.00,0.0226
2807.00,0.0224
2806.00,0.0223
2805.00,0.0222
2804.00,0.0221
2803.00,0.0220
2802.00,0.0219
2801.00,0.0218
2800.00,0.0217
2799.00,0.0217
2798.00,0.0216
2797.00,0.0215
2796.00,0.0214
2795.00,0.0212
2794.00,0.0211
2793.00,0.0210
2792.00,0.0209
2791.00,0.0208
2790.00,0.0207
2789.00,0.0206
2788.00,0.0205
2787.00,0.0204
2786.00,0.0204
2785.00,0.0203
2784.00,0.0202
2783.00,0.0201
2782.00,0.0200
2781.00,0.0199
2780.00,0.0198
2779.00,0.0197
2778.00,0.0196
2777.00,0.0196
2776.00,0.0195
2775.00,0.0194
2774.00,0.0194
2773.00,0.0193
2772.00,0.0192
2771.00,0.0191
2770.00,0.0190
2769.00,0.0189
2768.00,0.0188
2767.00,0.0188
2766.00,0.0187
2765.00,0.0187
2764.00,0.0186
2763.00,0.0185
2762.00,0.0184
2761.00,0.0183
2760.00,0.0183
2759.00,0.0182
2758.00,0.0181
2757.00,0.0180
2756.00,0.0180
2755.00,0.0179
2754.00,0.0179
2753.00,0.0179
2752.00,0.0178
2751.00,0.0178
2750.00,0.0177
2749.00,0.0177
2748.00,0.0176
2747.00,0.0175
2746.00,0.0174
2745.00,0.0174
2744.00,0.0173
2743.00,0.0173
2742.00,0.0172
2741.00,0.0172
2740.00,0.0171
2739.00,0.0171
2738.00,0.0171
2737.00,0.0170
2736.00,0.0169
2735.00,0.0169
2734.00,0.0168
2733.00,0.0168
2732.00,0.0167
2731.00,0.0167
2730.00,0.0166
2729.00,0.0166
2728.00,0.0165
2727.00,0.0164
2726.00,0.0164
2725.00,0.0163
2724.00,0.0162
2723.00,0.0162
2722.00,0.0161
2721.00,0.0161
2720.00,0.0161
2719.00,0.0160
2718.00,0.0160
2717.00,0.0159
2716.00,0.0159
2715.00,0.0159
2714.00,0.0158
2713.00,0.0157
2712.00,0.0157
2711.00,0.0156
2710.00,0.0156
2709.00,0.0155
2708.00,0.0155
2707.00,0.0154
2706.00,0.0154
2705.00,0.0153
2704.00,0.0152
2703.00,0.0152
2702.00,0.0152
2701.00,0.0151
2700.00,0.0151
2699.00,0.0150
2698.00,0.0150
2697.00,0.0150
2696.00,0.0150
2695.00,0.0149
2694.00,0.0149
2693.00,0.0149
2692.00,0.0148
2691.00,0.0147
2690.00,0.0147
2689.00,0.0146
2688.00,0.0146
2687.00,0.0146
2686.00,0.0146
2685.00,0.0146
2684.00,0.0145
2683.00,0.0145
2682.00,0.0144
2681.00,0.0144
2680.00,0.0143
2679.00,0.0143
2678.00,0.0142
2677.00,0.0142
2676.00,0.0141
2675.00,0.0141
2674.00,0.0141
2673.00,0.0141
2672.00,0.0141
2671.00,0.0140
2670.00,0.0140
2669.00,0.0140
2668.00,0.0139
2667.00,0.0139
2666.00,0.0139
2665.00,0.0140
2664.00,0.0140
2663.00,0.0140
2662.00,0.0140
2661.00,0.0140
2660.00,0.0140
2659.00,0.0140
2658.00,0.0140
2657.00,0.0140
2656.00,0.0140
2655.00,0.0140
2654.00,0.0139
2653.00,0.0139
2652.00,0.0138
2651.00,0.0138
2650.00,0.0138
2649.00,0.0137
2648.00,0.0137
2647.00,0.0136
2646.00,0.0136
2645.00,0.0135
2644.00,0.0135
2643.00,0.0134
2642.00,0.0133
2641.00,0.0133
2640.00,0.0132
2639.00,0.0131
2638.00,0.0131
2637.00,0.0130
2636.00,0.0130
2635.00,0.0130
2634.00,0.0129
2633.00,0.0129
2632.00,0.0129
2631.00,0.0128
2630.00,0.0128
2629.00,0.0127
2628.00,0.0127
2627.00,0.0126
2626.00,0.0125
2625.00,0.0124
2624.00,0.0123
2623.00,0.0123
2622.00,0.0123
2621.00,0.0123
2620.00,0.0122
2619.00,0.0121
2618.00,0.0121
2617.00,0.0121
2616.00,0.0121
2615.00,0.0120
2614.00,0.0120
2613.00,0.0119
2612.00,0.0119
2611.00,0.0118
2610.00,0.0118
2609.00,0.0117
2608.00,0.0116
2607.00,0.0116
2606.00,0.0115
2605.00,0.0114
2604.00,0.0114
2603.00,0.0113
2602.00,0.0113
2601.00,0.0113
2600.00,0.0113
2599.00,0.0112
2598.00,0.0111
2597.00,0.0111
2596.00,0.0111
2595.00,0.0111
2594.00,0.0111
2593.00,0.0110
2592.00,0.0110
2591.00,0.0110
2590.00,0.0110
2589.00,0.0110
2588.00,0.0110
2587.00,0.0110
2586.00,0.0110
2585.00,0.0109
2584.00,0.0109
2583.00,0.0108
2582.00,0.0107
2581.00,0.0107
2580.00,0.0106
2579.00,0.0106
2578.00,0.0105
2577.00,0.0105
2576.00,0.0105
2575.00,0.0106
2574.00,0.0106
2573.00,0.0105
2572.00,0.0105
2571.00,0.0104
2570.00,0.0104
2569.00,0.0104
2568.00,0.0104
2567.00,0.0103
2566.00,0.0103
2565.00,0.0102
2564.00,0.0102
2563.00,0.0102
2562.00,0.0102
2561.00,0.0102
2560.00,0.0103
2559.00,0.0103
2558.00,0.0103
2557.00,0.0103
2556.00,0.0103
2555.00,0.0102
2554.00,0.0102
2553.00,0.0101
2552.00,0.0100
2551.00,0.0099
2550.00,0.0099
2549.00,0.0099
2548.00,0.0099
2547.00,0.0099
2546.00,0.0099
2545.00,0.0099
2544.00,0.0099
2543.00,0.0099
2542.00,0.0099
2541.00,0.0098
2540.00,0.0098
2539.00,0.0098
2538.00,0.0097
2537.00,0.0098
2536.00,0.0098
2535.00,0.0098
2534.00,0.0098
2533.00,0.0097
2532.00,0.0097
2531.00,0.0096
2530.00,0.0096
2529.00,0.0096
2528.00,0.0096
2527.00,0.0095
2526.00,0.0095
2525.00,0.0095
2524.00,0.0096
2523.00,0.0096
2522.00,0.0095
2521.00,0.0095
2520.00,0.0096
2519.00,0.0096
2518.00,0.0096
2517.00,0.0096
2516.00,0.0096
2515.00,0.0096
2514.00,0.0096
2513.00,0.0095
2512.00,0.0095
2511.00,0.0095
2510.00,0.0094
2509.00,0.0094
2508.00,0.0095
2507.00,0.0095
2506.00,0.0094
2505.00,0.0094
2504.00,0.0094
2503.00,0.0094
2502.00,0.0094
2501.00,0.0094
2500.00,0.0095
2499.00,0.0095
2498.00,0.0094
2497.00,0.0094
2496.00,0.0093
2495.00,0.0093
2494.00,0.0093
2493.00,0.0093
2492.00,0.0093
2491.00,0.0093
2490.00,0.0093
2489.00,0.0093
2488.00,0.0093
2487.00,0.0093
2486.00,0.0092
2485.00,0.0092
2484.00,0.0092
2483.00,0.0092
2482.00,0.0093
2481.00,0.0093
2480.00,0.0093
2479.00,0.0092
2478.00,0.0092
2477.00,0.0091
2476.00,0.0091
2475.00,0.0091
2474.00,0.0091
2473.00,0.0092
2472.00,0.0092
2471.00,0.0092
2470.00,0.0092
2469.00,0.0092
2468.00,0.0092
2467.00,0.0092
2466.00,0.0091
2465.00,0.0091
2464.00,0.0091
2463.00,0.0091
2462.00,0.0092
2461.00,0.0092
2460.00,0.0092
2459.00,0.0093
2458.00,0.0093
2457.00,0.0093
2456.00,0.0094
2455.00,0.0094
2454.00,0.0094
2453.00,0.0094
2452.00,0.0093
2451.00,0.0093
2450.00,0.0093
2449.00,0.0092
2448.00,0.0092
2447.00,0.0092
2446.00,0.0092
2445.00,0.0091
2444.00,0.0091
2443.00,0.0091
2442.00,0.0091
2441.00,0.0091
2440.00,0.0091
2439.00,0.0091
2438.00,0.0091
2437.00,0.0091
2436.00,0.0091
2435.00,0.0091
2434.00,0.0091
2433.00,0.0090
2432.00,0.0089
2431.00,0.0089
2430.00,0.0089
2429.00,0.0089
2428.00,0.0089
2427.00,0.0088
2426.00,0.0088
2425.00,0.0088
2424.00,0.0088
2423.00,0.0088
2422.00,0.0088
2421.00,0.0089
2420.00,0.0090
2419.00,0.0090
2418.00,0.0090
2417.00,0.0090
2416.00,0.0089
2415.00,0.0089
2414.00,0.0089
2413.00,0.0089
2412.00,0.0090
2411.00,0.0090
2410.00,0.0090
2409.00,0.0090
2408.00,0.0089
2407.00,0.0088
2406.00,0.0087
2405.00,0.0087
2404.00,0.0087
2403.00,0.0088
2402.00,0.0088
2401.00,0.0088
2400.00,0.0088
2399.00,0.0089
2398.00,0.0089
2397.00,0.0089
2396.00,0.0089
2395.00,0.0089
2394.00,0.0088
2393.00,0.0088
2392.00,0.0088
2391.00,0.0088
2390.00,0.0089
2389.00,0.0089
2388.00,0.0089
2387.00,0.0089
2386.00,0.0090
2385.00,0.0090
2384.00,0.0090
2383.00,0.0089
2382.00,0.0089
2381.00,0.0089
2380.00,0.0088
2379.00,0.0088
2378.00,0.0088
2377.00,0.0088
2376.00,0.0089
2375.00,0.0090
2374.00,0.0091
2373.00,0.0092
2372.00,0.0092
2371.00,0.0092
2370.00,0.0092
2369.00,0.0092
2368.00,0.0093
2367.00,0.0093
2366.00,0.0093
2365.00,0.0094
2364.00,0.0094
2363.00,0.0094
2362.00,0.0094
2361.00,0.0095
2360.00,0.0096
2359.00,0.0097
2358.00,0.0097
2357.00,0.0098
2356.00,0.0098
2355.00,0.0098
2354.00,0.0098
2353.00,0.0098
2352.00,0.0098
2351.00,0.0099
2350.00,0.0099
2349.00,0.0099
2348.00,0.0099
2347.00,0.0099
2346.00,0.0099
2345.00,0.0100
2344.00,0.0102
2343.00,0.0103
2342.00,0.0104
2341.00,0.0104
2340.00,0.0105
2339.00,0.0105
2338.00,0.0106
2337.00,0.0106
2336.00,0.0106
2335.00,0.0106
2334.00,0.0105
2333.00,0.0104
2332.00,0.0104
2331.00,0.0104
2330.00,0.0105
2329.00,0.0107
2328.00,0.0110
2327.00,0.0114
2326.00,0.0119
2325.00,0.0123
2324.00,0.0125
2323.00,0.0125
2322.00,0.0123
2321.00,0.0121
2320.00,0.0119
2319.00,0.0118
2318.00,0.0117
2317.00,0.0117
2316.00,0.0116
2315.00,0.0115
2314.00,0.0115
2313.00,0.0114
2312.00,0.0114
2311.00,0.0114
2310.00,0.0114
2309.00,0.0114
2308.00,0.0115
2307.00,0.0115
2306.00,0.0114
2305.00,0.0114
2304.00,0.0114
2303.00,0.0114
2302.00,0.0114
2301.00,0.0115
2300.00,0.0115
2299.00,0.0115
2298.00,0.0115
2297.00,0.0116
2296.00,0.0116
2295.00,0.0117
2294.00,0.0118
2293.00,0.0120
2292.00,0.0121
2291.00,0.0122
2290.00,0.0123
2289.00,0.0123
2288.00,0.0123
2287.00,0.0123
2286.00,0.0123
2285.00,0.0123
2284.00,0.0123
2283.00,0.0122
2282.00,0.0121
2281.00,0.0120
2280.00,0.0120
2279.00,0.0119
2278.00,0.0118
2277.00,0.0117
2276.00,0.0117
2275.00,0.0117
2274.00,0.0117
2273.00,0.0117
2272.00,0.0117
2271.00,0.0116
2270.00,0.0115
2269.00,0.0114
2268.00,0.0113
2267.00,0.0113
2266.00,0.0113
2265.00,0.0112
2264.00,0.0112
2263.00,0.0113
2262.00,0.0114
2261.00,0.0115
2260.00,0.0116
2259.00,0.0115
2258.00,0.0114
2257.00,0.0113
2256.00,0.0113
2255.00,0.0112
2254.00,0.0111
2253.00,0.0111
2252.00,0.0112
2251.00,0.0112
2250.00,0.0112
2249.00,0.0111
2248.00,0.0110
2247.00,0.0108
2246.00,0.0107
2245.00,0.0108
2244.00,0.0109
2243.00,0.0111
2242.00,0.0112
2241.00,0.0112
2240.00,0.0112
2239.00,0.0111
2238.00,0.0111
2237.00,0.0112
2236.00,0.0112
2235.00,0.0112
2234.00,0.0111
2233.00,0.0109
2232.00,0.0108
2231.00,0.0107
2230.00,0.0108
2229.00,0.0109
2228.00,0.0109
2227.00,0.0108
2226.00,0.0107
2225.00,0.0106
2224.00,0.0107
2223.00,0.0108
2222.00,0.0109
2221.00,0.0109
2220.00,0.0110
2219.00,0.0109
2218.00,0.0107
2217.00,0.0106
2216.00,0.0105
2215.00,0.0104
2214.00,0.0105
2213.00,0.0107
2212.00,0.0108
2211.00,0.0109
2210.00,0.0109
2209.00,0.0109
2208.00,0.0109
2207.00,0.0108
2206.00,0.0108
2205.00,0.0109
2204.00,0.0110
2203.00,0.0109
2202.00,0.0107
2201.00,0.0104
2200.00,0.0103
2199.00,0.0103
2198.00,0.0105
2197.00,0.0108
2196.00,0.0110
2195.00,0.0110
2194.00,0.0108
2193.00,0.0107
2192.00,0.0108
2191.00,0.0108
2190.00,0.0108
2189.00,0.0108
2188.00,0.0108
2187.00,0.0108
2186.00,0.0108
2185.00,0.0107
2184.00,0.0104
2183.00,0.0101
2182.00,0.0098
2181.00,0.0097
2180.00,0.0098
2179.00,0.0098
2178.00,0.0098
2177.00,0.0098
2176.00,0.0099
2175.00,0.0099
2174.00,0.0097
2173.00,0.0096
2172.00,0.0095
2171.00,0.0096
2170.00,0.0097
2169.00,0.0098
2168.00,0.0099
2167.00,0.0099
2166.00,0.0100
2165.00,0.0102
2164.00,0.0107
2163.00,0.0111
2162.00,0.0111
2161.00,0.0105
2160.00,0.0091
2159.00,0.0074
2158.00,0.0059
2157.00,0.0051
2156.00,0.0050
2155.00,0.0053
2154.00,0.0058
2153.00,0.0063
2152.00,0.0068
2151.00,0.0072
2150.00,0.0075
2149.00,0.0078
2148.00,0.0081
2147.00,0.0082
2146.00,0.0084
2145.00,0.0085
2144.00,0.0087
2143.00,0.0087
2142.00,0.0087
2141.00,0.0088
2140.00,0.0090
2139.00,0.0091
2138.00,0.0091
2137.00,0.0091
2136.00,0.0090
2135.00,0.0087
2134.00,0.0084
2133.00,0.0082
2132.00,0.0084
2131.00,0.0086
2130.00,0.0089
2129.00,0.0092
2128.00,0.0095
2127.00,0.0099
2126.00,0.0102
2125.00,0.0104
2124.00,0.0106
2123.00,0.0108
2122.00,0.0109
2121.00,0.0111
2120.00,0.0112
2119.00,0.0113
2118.00,0.0113
2117.00,0.0114
2116.00,0.0116
2115.00,0.0118
2114.00,0.0120
2113.00,0.0121
2112.00,0.0124
2111.00,0.0125
2110.00,0.0125
2109.00,0.0124
2108.00,0.0124
2107.00,0.0123
2106.00,0.0123
2105.00,0.0123
2104.00,0.0123
2103.00,0.0122
2102.00,0.0122
2101.00,0.0122
2100.00,0.0121
2099.00,0.0120
2098.00,0.0118
2097.00,0.0116
2096.00,0.0113
2095.00,0.0111
2094.00,0.0109
2093.00,0.0108
2092.00,0.0108
2091.00,0.0109
2090.00,0.0111
2089.00,0.0113
2088.00,0.0115
2087.00,0.0117
2086.00,0.0117
2085.00,0.0117
2084.00,0.0116
2083.00,0.0115
2082.00,0.0114
2081.00,0.0114
2080.00,0.0115
2079.00,0.0115
2078.00,0.0113
2077.00,0.0112
2076.00,0.0111
2075.00,0.0110
2074.00,0.0110
2073.00,0.0109
2072.00,0.0110
2071.00,0.0109
2070.00,0.0109
2069.00,0.0109
2068.00,0.0110
2067.00,0.0109
2066.00,0.0106
2065.00,0.0102
2064.00,0.0099
2063.00,0.0098
2062.00,0.0098
2061.00,0.0099
2060.00,0.0100
2059.00,0.0101
2058.00,0.0101
2057.00,0.0101
2056.00,0.0100
2055.00,0.0099
2054.00,0.0100
2053.00,0.0104
2052.00,0.0109
2051.00,0.0112
2050.00,0.0109
2049.00,0.0103
2048.00,0.0098
2047.00,0.0094
2046.00,0.0092
2045.00,0.0092
2044.00,0.0094
2043.00,0.0095
2042.00,0.0093
2041.00,0.0089
2040.00,0.0086
2039.00,0.0083
2038.00,0.0081
2037.00,0.0080
2036.00,0.0080
2035.00,0.0079
2034.00,0.0075
2033.00,0.0071
2032.00,0.0067
2031.00,0.0066
2030.00,0.0066
2029.00,0.0070
2028.00,0.0074
2027.00,0.0076
2026.00,0.0076
2025.00,0.0074
2024.00,0.0072
2023.00,0.0069
2022.00,0.0066
2021.00,0.0064
2020.00,0.0063
2019.00,0.0062
2018.00,0.0061
2017.00,0.0062
2016.00,0.0066
2015.00,0.0070
2014.00,0.0070
2013.00,0.0069
2012.00,0.0069
2011.00,0.0070
2010.00,0.0071
2009.00,0.0072
2008.00,0.0070
2007.00,0.0066
2006.00,0.0060
2005.00,0.0057
2004.00,0.0055
2003.00,0.0054
2002.00,0.0055
2001.00,0.0059
2000.00,0.0064
1999.00,0.0069
1998.00,0.0071
1997.00,0.0074
1996.00,0.0075
1995.00,0.0075
1994.00,0.0074
1993.00,0.0074
1992.00,0.0076
1991.00,0.0077
1990.00,0.0078
1989.00,0.0079
1988.00,0.0080
1987.00,0.0080
1986.00,0.0080
1985.00,0.0081
1984.00,0.0083
1983.00,0.0085
1982.00,0.0086
1981.00,0.0087
1980.00,0.0087
1979.00,0.0084
1978.00,0.0076
1977.00,0.0067
1976.00,0.0061
1975.00,0.0058
1974.00,0.0056
1973.00,0.0056
1972.00,0.0057
1971.00,0.0056
1970.00,0.0053
1969.00,0.0052
1968.00,0.0051
1967.00,0.0052
1966.00,0.0053
1965.00,0.0055
1964.00,0.0057
1963.00,0.0057
1962.00,0.0057
1961.00,0.0056
1960.00,0.0056
1959.00,0.0057
1958.00,0.0057
1957.00,0.0057
1956.00,0.0057
1955.00,0.0057
1954.00,0.0056
1953.00,0.0056
1952.00,0.0056
1951.00,0.0057
1950.00,0.0057
1949.00,0.0058
1948.00,0.0059
1947.00,0.0061
1946.00,0.0061
1945.00,0.0062
1944.00,0.0062
1943.00,0.0061
1942.00,0.0060
1941.00,0.0061
1940.00,0.0062
1939.00,0.0063
1938.00,0.0063
1937.00,0.0063
1936.00,0.0063
1935.00,0.0062
1934.00,0.0061
1933.00,0.0062
1932.00,0.0063
1931.00,0.0064
1930.00,0.0065
1929.00,0.0066
1928.00,0.0067
1927.00,0.0068
1926.00,0.0067
1925.00,0.0066
1924.00,0.0066
1923.00,0.0064
1922.00,0.0064
1921.00,0.0065
1920.00,0.0068
1919.00,0.0070
1918.00,0.0069
1917.00,0.0067
1916.00,0.0065
1915.00,0.0064
1914.00,0.0064
1913.00,0.0064
1912.00,0.0065
1911.00,0.0065
1910.00,0.0065
1909.00,0.0064
1908.00,0.0063
1907.00,0.0063
1906.00,0.0063
1905.00,0.0063
1904.00,0.0063
1903.00,0.0063
1902.00,0.0063
1901.00,0.0063
1900.00,0.0064
1899.00,0.0064
1898.00,0.0064
1897.00,0.0063
1896.00,0.0063
1895.00,0.0063
1894.00,0.0062
1893.00,0.0063
1892.00,0.0064
1891.00,0.0064
1890.00,0.0063
1889.00,0.0062
1888.00,0.0061
1887.00,0.0061
1886.00,0.0060
1885.00,0.0060
1884.00,0.0060
1883.00,0.0060
1882.00,0.0060
1881.00,0.0060
1880.00,0.0059
1879.00,0.0058
1878.00,0.0057
1877.00,0.0057
1876.00,0.0057
1875.00,0.0058
1874.00,0.0058
1873.00,0.0059
1872.00,0.0060
1871.00,0.0061
1870.00,0.0060
1869.00,0.0058
1868.00,0.0056
1867.00,0.0054
1866.00,0.0054
1865.00,0.0055
1864.00,0.0057
1863.00,0.0057
1862.00,0.0056
1861.00,0.0056
1860.00,0.0056
1859.00,0.0056
1858.00,0.0056
1857.00,0.0056
1856.00,0.0056
1855.00,0.0056
1854.00,0.0055
1853.00,0.0055
1852.00,0.0055
1851.00,0.0055
1850.00,0.0054
1849.00,0.0054
1848.00,0.0054
1847.00,0.0055
1846.00,0.0056
1845.00,0.0056
1844.00,0.0055
1843.00,0.0053
1842.00,0.0052
1841.00,0.0053
1840.00,0.0054
1839.00,0.0056
1838.00,0.0056
1837.00,0.0055
1836.00,0.0055
1835.00,0.0055
1834.00,0.0055
1833.00,0.0056
1832.00,0.0058
1831.00,0.0059
1830.00,0.0059
1829.00,0.0058
1828.00,0.0057
1827.00,0.0057
1826.00,0.0056
1825.00,0.0056
1824.00,0.0056
1823.00,0.0056
1822.00,0.0056
1821.00,0.0056
1820.00,0.0056
1819.00,0.0055
1818.00,0.0053
1817.00,0.0051
1816.00,0.0051
1815.00,0.0053
1814.00,0.0054
1813.00,0.0055
1812.00,0.0056
1811.00,0.0056
1810.00,0.0055
1809.00,0.0054
1808.00,0.0054
1807.00,0.0054
1806.00,0.0055
1805.00,0.0055
1804.00,0.0056
1803.00,0.0055
1802.00,0.0055
1801.00,0.0055
1800.00,0.0055
1799.00,0.0056
1798.00,0.0055
1797.00,0.0055
1796.00,0.0055
1795.00,0.0056
1794.00,0.0058
1793.00,0.0058
1792.00,0.0056
1791.00,0.0054
1790.00,0.0052
1789.00,0.0052
1788.00,0.0054
1787.00,0.0054
1786.00,0.0054
1785.00,0.0053
1784.00,0.0054
1783.00,0.0054
1782.00,0.0055
1781.00,0.0054
1780.00,0.0054
1779.00,0.0053
1778.00,0.0052
1777.00,0.0053
1776.00,0.0054
1775.00,0.0056
1774.00,0.0058
1773.00,0.0058
1772.00,0.0058
1771.00,0.0056
1770.00,0.0054
1769.00,0.0053
1768.00,0.0052
1767.00,0.0052
1766.00,0.0053
1765.00,0.0055
1764.00,0.0057
1763.00,0.0058
1762.00,0.0058
1761.00,0.0057
1760.00,0.0057
1759.00,0.0058
1758.00,0.0059
1757.00,0.0060
1756.00,0.0061
1755.00,0.0064
1754.00,0.0066
1753.00,0.0068
1752.00,0.0069
1751.00,0.0071
1750.00,0.0074
1749.00,0.0079
1748.00,0.0083
1747.00,0.0087
1746.00,0.0088
1745.00,0.0090
1744.00,0.0092
1743.00,0.0095
1742.00,0.0099
1741.00,0.0105
1740.00,0.0109
1739.00,0.0111
1738.00,0.0111
1737.00,0.0113
1736.00,0.0115
1735.00,0.0116
1734.00,0.0115
1733.00,0.0114
1732.00,0.0116
1731.00,0.0120
1730.00,0.0124
1729.00,0.0127
1728.00,0.0131
1727.00,0.0134
1726.00,0.0138
1725.00,0.0141
1724.00,0.0145
1723.00,0.0149
1722.00,0.0153
1721.00,0.0158
1720.00,0.0163
1719.00,0.0167
1718.00,0.0168
1717.00,0.0170
1716.00,0.0175
1715.00,0.0183
1714.00,0.0189
1713.00,0.0196
1712.00,0.0202
1711.00,0.0208
1710.00,0.0214
1709.00,0.0221
1708.00,0.0231
1707.00,0.0241
1706.00,0.0251
1705.00,0.0261
1704.00,0.0270
1703.00,0.0279
1702.00,0.0290
1701.00,0.0307
1700.00,0.0328
1699.00,0.0343
1698.00,0.0352
1697.00,0.0363
1696.00,0.0381
1695.00,0.0403
1694.00,0.0423
1693.00,0.0442
1692.00,0.0461
1691.00,0.0479
1690.00,0.0498
1689.00,0.0519
1688.00,0.0538
1687.00,0.0554
1686.00,0.0571
1685.00,0.0597
1684.00,0.0634
1683.00,0.0669
1682.00,0.0694
1681.00,0.0712
1680.00,0.0730
1679.00,0.0748
1678.00,0.0767
1677.00,0.0788
1676.00,0.0815
1675.00,0.0845
1674.00,0.0873
1673.00,0.0895
1672.00,0.0914
1671.00,0.0936
1670.00,0.0964
1669.00,0.0996
1668.00,0.1025
1667.00,0.1048
1666.00,0.1065
1665.00,0.1082
1664.00,0.1106
1663.00,0.1136
1662.00,0.1168
1661.00,0.1197
1660.00,0.1221
1659.00,0.1242
1658.00,0.1260
1657.00,0.1273
1656.00,0.1281
1655.00,0.1288
1654.00,0.1308
1653.00,0.1356
1652.00,0.1403
1651.00,0.1425
1650.00,0.1431
1649.00,0.1431
1648.00,0.1435
1647.00,0.1448
1646.00,0.1468
1645.00,0.1483
1644.00,0.1490
1643.00,0.1491
1642.00,0.1490
1641.00,0.1488
1640.00,0.1487
1639.00,0.1485
1638.00,0.1481
1637.00,0.1478
1636.00,0.1485
1635.00,0.1497
1634.00,0.1501
1633.00,0.1493
1632.00,0.1477
1631.00,0.1459
1630.00,0.1441
1629.00,0.1424
1628.00,0.1409
1627.00,0.1394
1626.00,0.1377
1625.00,0.1357
1624.00,0.1335
1623.00,0.1313
1622.00,0.1292
1621.00,0.1268
1620.00,0.1242
1619.00,0.1213
1618.00,0.1182
1617.00,0.1152
1616.00,0.1126
1615.00,0.1104
1614.00,0.1080
1613.00,0.1054
1612.00,0.1025
1611.00,0.0995
1610.00,0.0968
1609.00,0.0941
1608.00,0.0915
1607.00,0.0890
1606.00,0.0866
1605.00,0.0842
1604.00,0.0819
1603.00,0.0797
1602.00,0.0776
1601.00,0.0755
1600.00,0.0735
1599.00,0.0716
1598.00,0.0697
1597.00,0.0679
1596.00,0.0661
1595.00,0.0644
1594.00,0.0629
1593.00,0.0614
1592.00,0.0598
1591.00,0.0584
1590.00,0.0571
1589.00,0.0558
1588.00,0.0547
1587.00,0.0536
1586.00,0.0527
1585.00,0.0518
1584.00,0.0509
1583.00,0.0501
1582.00,0.0495
1581.00,0.0489
1580.00,0.0483
1579.00,0.0477
1578.00,0.0470
1577.00,0.0463
1576.00,0.0461
1575.00,0.0462
1574.00,0.0464
1573.00,0.0465
1572.00,0.0464
1571.00,0.0464
1570.00,0.0466
1569.00,0.0469
1568.00,0.0470
1567.00,0.0471
1566.00,0.0473
1565.00,0.0475
1564.00,0.0477
1563.00,0.0479
1562.00,0.0478
1561.00,0.0479
1560.00,0.0486
1559.00,0.0503
1558.00,0.0524
1557.00,0.0534
1556.00,0.0535
1555.00,0.0535
1554.00,0.0536
1553.00,0.0539
1552.00,0.0542
1551.00,0.0544
1550.00,0.0547
1549.00,0.0549
1548.00,0.0551
1547.00,0.0551
1546.00,0.0548
1545.00,0.0544
1544.00,0.0541
1543.00,0.0540
1542.00,0.0539
1541.00,0.0535
1540.00,0.0529
1539.00,0.0521
1538.00,0.0513
1537.00,0.0506
1536.00,0.0499
1535.00,0.0490
1534.00,0.0480
1533.00,0.0470
1532.00,0.0460
1531.00,0.0451
1530.00,0.0441
1529.00,0.0431
1528.00,0.0421
1527.00,0.0410
1526.00,0.0400
1525.00,0.0392
1524.00,0.0384
1523.00,0.0375
1522.00,0.0364
1521.00,0.0354
1520.00,0.0348
1519.00,0.0343
1518.00,0.0337
1517.00,0.0327
1516.00,0.0315
1515.00,0.0304
1514.00,0.0292
1513.00,0.0280
1512.00,0.0267
1511.00,0.0254
1510.00,0.0241
1509.00,0.0228
1508.00,0.0214
1507.00,0.0202
1506.00,0.0193
1505.00,0.0186
1504.00,0.0179
1503.00,0.0171
1502.00,0.0164
1501.00,0.0156
1500.00,0.0150
1499.00,0.0143
1498.00,0.0135
1497.00,0.0126
1496.00,0.0118
1495.00,0.0112
1494.00,0.0109
1493.00,0.0107
1492.00,0.0104
1491.00,0.0101
1490.00,0.0096
1489.00,0.0092
1488.00,0.0091
1487.00,0.0091
1486.00,0.0090
1485.00,0.0089
1484.00,0.0089
1483.00,0.0091
1482.00,0.0093
1481.00,0.0096
1480.00,0.0100
1479.00,0.0104
1478.00,0.0109
1477.00,0.0115
1476.00,0.0120
1475.00,0.0126
1474.00,0.0133
1473.00,0.0142
1472.00,0.0152
1471.00,0.0160
1470.00,0.0166
1469.00,0.0170
1468.00,0.0173
1467.00,0.0176
1466.00,0.0180
1465.00,0.0184
1464.00,0.0189
1463.00,0.0192
1462.00,0.0195
1461.00,0.0197
1460.00,0.0199
1459.00,0.0201
1458.00,0.0203
1457.00,0.0207
1456.00,0.0214
1455.00,0.0219
1454.00,0.0221
1453.00,0.0222
1452.00,0.0222
1451.00,0.0221
1450.00,0.0221
1449.00,0.0220
1448.00,0.0221
1447.00,0.0221
1446.00,0.0222
1445.00,0.0222
1444.00,0.0222
1443.00,0.0221
1442.00,0.0222
1441.00,0.0222
1440.00,0.0223
1439.00,0.0222
1438.00,0.0223
1437.00,0.0224
1436.00,0.0227
1435.00,0.0231
1434.00,0.0233
1433.00,0.0235
1432.00,0.0237
1431.00,0.0239
1430.00,0.0242
1429.00,0.0245
1428.00,0.0248
1427.00,0.0251
1426.00,0.0253
1425.00,0.0255
1424.00,0.0258
1423.00,0.0261
1422.00,0.0264
1421.00,0.0264
1420.00,0.0265
1419.00,0.0267
1418.00,0.0270
1417.00,0.0273
1416.00,0.0274
1415.00,0.0274
1414.00,0.0273
1413.00,0.0271
1412.00,0.0269
1411.00,0.0266
1410.00,0.0264
1409.00,0.0262
1408.00,0.0260
1407.00,0.0257
1406.00,0.0253
1405.00,0.0250
1404.00,0.0246
1403.00,0.0242
1402.00,0.0238
1401.00,0.0232
1400.00,0.0226
1399.00,0.0219
1398.00,0.0213
1397.00,0.0207
1396.00,0.0202
1395.00,0.0198
1394.00,0.0196
1393.00,0.0195
1392.00,0.0193
1391.00,0.0192
1390.00,0.0190
1389.00,0.0189
1388.00,0.0189
1387.00,0.0193
1386.00,0.0198
1385.00,0.0203
1384.00,0.0208
1383.00,0.0212
1382.00,0.0215
1381.00,0.0217
1380.00,0.0218
1379.00,0.0219
1378.00,0.0219
1377.00,0.0220
1376.00,0.0219
1375.00,0.0216
1374.00,0.0213
1373.00,0.0210
1372.00,0.0207
1371.00,0.0203
1370.00,0.0198
1369.00,0.0192
1368.00,0.0187
1367.00,0.0182
1366.00,0.0177
1365.00,0.0171
1364.00,0.0165
1363.00,0.0160
1362.00,0.0157
1361.00,0.0156
1360.00,0.0156
1359.00,0.0155
1358.00,0.0154
1357.00,0.0152
1356.00,0.0150
1355.00,0.0147
1354.00,0.0145
1353.00,0.0142
1352.00,0.0138
1351.00,0.0135
1350.00,0.0130
1349.00,0.0126
1348.00,0.0121
1347.00,0.0116
1346.00,0.0111
1345.00,0.0106
1344.00,0.0101
1343.00,0.0096
1342.00,0.0090
1341.00,0.0084
1340.00,0.0078
1339.00,0.0074
1338.00,0.0071
1337.00,0.0070
1336.00,0.0069
1335.00,0.0067
1334.00,0.0065
1333.00,0.0062
1332.00,0.0059
1331.00,0.0057
1330.00,0.0055
1329.00,0.0054
1328.00,0.0054
1327.00,0.0054
1326.00,0.0054
1325.00,0.0054
1324.00,0.0054
1323.00,0.0054
1322.00,0.0054
1321.00,0.0053
1320.00,0.0053
1319.00,0.0054
1318.00,0.0054
1317.00,0.0054
1316.00,0.0055
1315.00,0.0055
1314.00,0.0054
1313.00,0.0055
1312.00,0.0055
1311.00,0.0056
1310.00,0.0057
1309.00,0.0057
1308.00,0.0058
1307.00,0.0060
1306.00,0.0062
1305.00,0.0065
1304.00,0.0068
1303.00,0.0073
1302.00,0.0077
1301.00,0.0083
1300.00,0.0089
1299.00,0.0096
1298.00,0.0104
1297.00,0.0114
1296.00,0.0124
1295.00,0.0136
1294.00,0.0148
1293.00,0.0162
1292.00,0.0176
1291.00,0.0191
1290.00,0.0207
1289.00,0.0224
1288.00,0.0243
1287.00,0.0263
1286.00,0.0284
1285.00,0.0307
1284.00,0.0330
1283.00,0.0355
1282.00,0.0380
1281.00,0.0406
1280.00,0.0433
1279.00,0.0460
1278.00,0.0488
1277.00,0.0517
1276.00,0.0546
1275.00,0.0576
1274.00,0.0605
1273.00,0.0635
1272.00,0.0666
1271.00,0.0696
1270.00,0.0726
1269.00,0.0755
1268.00,0.0783
1267.00,0.0810
1266.00,0.0836
1265.00,0.0861
1264.00,0.0886
1263.00,0.0910
1262.00,0.0932
1261.00,0.0953
1260.00,0.0973
1259.00,0.0992
1258.00,0.1009
1257.00,0.1025
1256.00,0.1040
1255.00,0.1053
1254.00,0.1065
1253.00,0.1077
1252.00,0.1088
1251.00,0.1098
1250.00,0.1107
1249.00,0.1116
1248.00,0.1124
1247.00,0.1131
1246.00,0.1139
1245.00,0.1146
1244.00,0.1154
1243.00,0.1162
1242.00,0.1171
1241.00,0.1180
1240.00,0.1190
1239.00,0.1200
1238.00,0.1211
1237.00,0.1222
1236.00,0.1235
1235.00,0.1248
1234.00,0.1261
1233.00,0.1274
1232.00,0.1288
1231.00,0.1301
1230.00,0.1313
1229.00,0.1325
1228.00,0.1337
1227.00,0.1348
1226.00,0.1357
1225.00,0.1366
1224.00,0.1373
1223.00,0.1379
1222.00,0.1383
1221.00,0.1386
1220.00,0.1388
1219.00,0.1388
1218.00,0.1385
1217.00,0.1380
1216.00,0.1372
1215.00,0.1362
1214.00,0.1348
1213.00,0.1332
1212.00,0.1315
1211.00,0.1296
1210.00,0.1276
1209.00,0.1254
1208.00,0.1232
1207.00,0.1209
1206.00,0.1186
1205.00,0.1164
1204.00,0.1143
1203.00,0.1123
1202.00,0.1104
1201.00,0.1087
1200.00,0.1074
1199.00,0.1063
1198.00,0.1054
1197.00,0.1047
1196.00,0.1042
1195.00,0.1035
1194.00,0.1026
1193.00,0.1015
1192.00,0.1000
1191.00,0.0979
1190.00,0.0953
1189.00,0.0922
1188.00,0.0888
1187.00,0.0852
1186.00,0.0818
1185.00,0.0786
1184.00,0.0759
1183.00,0.0735
1182.00,0.0716
1181.00,0.0702
1180.00,0.0693
1179.00,0.0687
1178.00,0.0684
1177.00,0.0684
1176.00,0.0687
1175.00,0.0694
1174.00,0.0704
1173.00,0.0718
1172.00,0.0735
1171.00,0.0755
1170.00,0.0778
1169.00,0.0805
1168.00,0.0833
1167.00,0.0865
1166.00,0.0898
1165.00,0.0932
1164.00,0.0968
1163.00,0.1003
1162.00,0.1037
1161.00,0.1070
1160.00,0.1101
1159.00,0.1129
1158.00,0.1154
1157.00,0.1175
1156.00,0.1193
1155.00,0.1206
1154.00,0.1216
1153.00,0.1223
1152.00,0.1227
1151.00,0.1227
1150.00,0.1224
1149.00,0.1218
1148.00,0.1210
1147.00,0.1198
1146.00,0.1185
1145.00,0.1171
1144.00,0.1158
1143.00,0.1144
1142.00,0.1133
1141.00,0.1123
1140.00,0.1117
1139.00,0.1111
1138.00,0.1107
1137.00,0.1104
1136.00,0.1103
1135.00,0.1104
1134.00,0.1108
1133.00,0.1115
1132.00,0.1126
1131.00,0.1143
1130.00,0.1165
1129.00,0.1192
1128.00,0.1221
1127.00,0.1248
1126.00,0.1268
1125.00,0.1279
1124.00,0.1278
1123.00,0.1265
1122.00,0.1244
1121.00,0.1218
1120.00,0.1192
1119.00,0.1166
1118.00,0.1142
1117.00,0.1122
1116.00,0.1105
1115.00,0.1092
1114.00,0.1082
1113.00,0.1075
1112.00,0.1072
1111.00,0.1072
1110.00,0.1074
1109.00,0.1081
1108.00,0.1092
1107.00,0.1106
1106.00,0.1124
1105.00,0.1146
1104.00,0.1171
1103.00,0.1199
1102.00,0.1229
1101.00,0.1261
1100.00,0.1294
1099.00,0.1327
1098.00,0.1358
1097.00,0.1387
1096.00,0.1415
1095.00,0.1439
1094.00,0.1460
1093.00,0.1480
1092.00,0.1499
1091.00,0.1517
1090.00,0.1535
1089.00,0.1556
1088.00,0.1579
1087.00,0.1604
1086.00,0.1632
1085.00,0.1662
1084.00,0.1695
1083.00,0.1730
1082.00,0.1765
1081.00,0.1803
1080.00,0.1843
1079.00,0.1885
1078.00,0.1926
1077.00,0.1968
1076.00,0.2010
1075.00,0.2049
1074.00,0.2085
1073.00,0.2118
1072.00,0.2149
1071.00,0.2176
1070.00,0.2198
1069.00,0.2215
1068.00,0.2226
1067.00,0.2230
1066.00,0.2227
1065.00,0.2217
1064.00,0.2201
1063.00,0.2179
1062.00,0.2151
1061.00,0.2122
1060.00,0.2094
1059.00,0.2069
1058.00,0.2049
1057.00,0.2035
1056.00,0.2028
1055.00,0.2025
1054.00,0.2027
1053.00,0.2034
1052.00,0.2047
1051.00,0.2065
1050.00,0.2089
1049.00,0.2118
1048.00,0.2152
1047.00,0.2189
1046.00,0.2227
1045.00,0.2267
1044.00,0.2305
1043.00,0.2339
1042.00,0.2366
1041.00,0.2388
1040.00,0.2405
1039.00,0.2414
1038.00,0.2417
1037.00,0.2417
1036.00,0.2415
1035.00,0.2411
1034.00,0.2407
1033.00,0.2406
1032.00,0.2407
1031.00,0.2409
1030.00,0.2407
1029.00,0.2401
1028.00,0.2387
1027.00,0.2365
1026.00,0.2334
1025.00,0.2294
1024.00,0.2247
1023.00,0.2191
1022.00,0.2129
1021.00,0.2066
1020.00,0.2001
1019.00,0.1936
1018.00,0.1872
1017.00,0.1811
1016.00,0.1755
1015.00,0.1701
1014.00,0.1653
1013.00,0.1610
1012.00,0.1572
1011.00,0.1540
1010.00,0.1512
1009.00,0.1488
1008.00,0.1467
1007.00,0.1447
1006.00,0.1427
1005.00,0.1405
1004.00,0.1379
1003.00,0.1346
1002.00,0.1304
1001.00,0.1254
1000.00,0.1199
999.00,0.1141
998.00,0.1082
997.00,0.1027
996.00,0.0978
995.00,0.0936
994.00,0.0899
993.00,0.0868
992.00,0.0840
991.00,0.0814
990.00,0.0790
989.00,0.0767
988.00,0.0744
987.00,0.0719
986.00,0.0694
985.00,0.0670
984.00,0.0648
983.00,0.0629
982.00,0.0614
981.00,0.0601
980.00,0.0591
979.00,0.0583
978.00,0.0577
977.00,0.0572
976.00,0.0567
975.00,0.0563
974.00,0.0558
973.00,0.0552
972.00,0.0546
971.00,0.0537
970.00,0.0523
969.00,0.0504
968.00,0.0478
967.00,0.0443
966.00,0.0403
965.00,0.0358
964.00,0.0312
963.00,0.0266
962.00,0.0222
961.00,0.0183
960.00,0.0148
959.00,0.0119
958.00,0.0095
957.00,0.0076
956.00,0.0061
955.00,0.0051
954.00,0.0044
953.00,0.0041
952.00,0.0041
951.00,0.0044
950.00,0.0049
949.00,0.0057
948.00,0.0068
947.00,0.0082
946.00,0.0100
945.00,0.0122
944.00,0.0150
943.00,0.0182
942.00,0.0219
941.00,0.0262
940.00,0.0310
939.00,0.0363
938.00,0.0419
937.00,0.0478
936.00,0.0536
935.00,0.0592
934.00,0.0643
933.00,0.0688
932.00,0.0727
931.00,0.0758
930.00,0.0781
929.00,0.0798
928.00,0.0807
927.00,0.0810
926.00,0.0806
925.00,0.0798
924.00,0.0785
923.00,0.0768
922.00,0.0749
921.00,0.0727
920.00,0.0705
919.00,0.0679
918.00,0.0651
917.00,0.0621
916.00,0.0590
915.00,0.0558
914.00,0.0525
913.00,0.0493
912.00,0.0461
911.00,0.0430
910.00,0.0402
909.00,0.0377
908.00,0.0355
907.00,0.0335
906.00,0.0318
905.00,0.0304
904.00,0.0293
903.00,0.0284
902.00,0.0278
901.00,0.0273
900.00,0.0269
899.00,0.0264
898.00,0.0259
897.00,0.0255
896.00,0.0252
895.00,0.0251
894.00,0.0251
893.00,0.0251
892.00,0.0251
891.00,0.0250
890.00,0.0247
889.00,0.0242
888.00,0.0233
887.00,0.0220
886.00,0.0204
885.00,0.0184
884.00,0.0161
883.00,0.0136
882.00,0.0110
881.00,0.0086
880.00,0.0066
879.00,0.0051
878.00,0.0042
877.00,0.0039
876.00,0.0040
875.00,0.0045
874.00,0.0050
873.00,0.0054
872.00,0.0057
871.00,0.0058
870.00,0.0058
869.00,0.0057
868.00,0.0057
867.00,0.0058
866.00,0.0061
865.00,0.0066
864.00,0.0075
863.00,0.0088
862.00,0.0105
861.00,0.0127
860.00,0.0152
859.00,0.0179
858.00,0.0207
857.00,0.0237
856.00,0.0270
855.00,0.0305
854.00,0.0341
853.00,0.0377
852.00,0.0413
851.00,0.0447
850.00,0.0477
849.00,0.0503
848.00,0.0523
847.00,0.0536
846.00,0.0540
845.00,0.0536
844.00,0.0524
843.00,0.0504
842.00,0.0478
841.00,0.0448
840.00,0.0415
839.00,0.0382
838.00,0.0348
837.00,0.0316
836.00,0.0286
835.00,0.0258
834.00,0.0231
833.00,0.0206
832.00,0.0183
831.00,0.0162
830.00,0.0143
829.00,0.0126
828.00,0.0113
827.00,0.0101
826.00,0.0090
825.00,0.0080
824.00,0.0071
823.00,0.0064
822.00,0.0058
821.00,0.0054
820.00,0.0052
819.00,0.0050
818.00,0.0049
817.00,0.0049
816.00,0.0051
815.00,0.0054
814.00,0.0057
813.00,0.0060
812.00,0.0065
811.00,0.0072
810.00,0.0079
809.00,0.0087
808.00,0.0095
807.00,0.0102
806.00,0.0108
805.00,0.0113
804.00,0.0117
803.00,0.0119
802.00,0.0120
801.00,0.0119
800.00,0.0118
799.00,0.0115
798.00,0.0111
797.00,0.0106
796.00,0.0100
795.00,0.0092
794.00,0.0083
793.00,0.0075
792.00,0.0068
791.00,0.0062
790.00,0.0057
789.00,0.0054
788.00,0.0051
787.00,0.0049
786.00,0.0047
785.00,0.0046
784.00,0.0047
783.00,0.0049
782.00,0.0051
781.00,0.0055
780.00,0.0059
779.00,0.0066
778.00,0.0075
777.00,0.0084
776.00,0.0094
775.00,0.0102
774.00,0.0109
773.00,0.0114
772.00,0.0115
771.00,0.0114
770.00,0.0108
769.00,0.0101
768.00,0.0093
767.00,0.0084
766.00,0.0075
765.00,0.0067
764.00,0.0061
763.00,0.0057
762.00,0.0054
761.00,0.0052
760.00,0.0053
759.00,0.0053
758.00,0.0054
757.00,0.0058
756.00,0.0064
755.00,0.0073
754.00,0.0084
753.00,0.0098
752.00,0.0115
751.00,0.0133
750.00,0.0152
749.00,0.0172
748.00,0.0194
747.00,0.0215
746.00,0.0234
745.00,0.0251
744.00,0.0266
743.00,0.0280
742.00,0.0291
741.00,0.0302
740.00,0.0311
739.00,0.0318
738.00,0.0322
737.00,0.0325
736.00,0.0327
735.00,0.0327
734.00,0.0327
733.00,0.0325
732.00,0.0324
731.00,0.0321
730.00,0.0320
729.00,0.0320
728.00,0.0323
727.00,0.0326
726.00,0.0327
725.00,0.0327
724.00,0.0326
723.00,0.0324
722.00,0.0319
721.00,0.0314
720.00,0.0308
719.00,0.0303
718.00,0.0298
717.00,0.0295
716.00,0.0294
715.00,0.0295
714.00,0.0299
713.00,0.0304
712.00,0.0313
711.00,0.0323
710.00,0.0335
709.00,0.0349
708.00,0.0366
707.00,0.0383
706.00,0.0400
705.00,0.0414
704.00,0.0427
703.00,0.0436
702.00,0.0442
701.00,0.0445
700.00,0.0444
699.00,0.0439
698.00,0.0430
697.00,0.0418
696.00,0.0404
695.00,0.0387
694.00,0.0369
693.00,0.0350
692.00,0.0328
691.00,0.0306
690.00,0.0284
689.00,0.0264
688.00,0.0247
687.00,0.0231
686.00,0.0215
685.00,0.0200
684.00,0.0187
683.00,0.0176
682.00,0.0167
681.00,0.0160
680.00,0.0154
679.00,0.0151
678.00,0.0148
677.00,0.0149
676.00,0.0153
675.00,0.0157
674.00,0.0161
673.00,0.0163
672.00,0.0164
671.00,0.0160
670.00,0.0156
669.00,0.0161
668.00,0.0182
667.00,0.0203
666.00,0.0206
665.00,0.0198
664.00,0.0192
663.00,0.0195
662.00,0.0206
661.00,0.0225
660.00,0.0248
659.00,0.0273
658.00,0.0294
657.00,0.0303
656.00,0.0299
655.00,0.0282
654.00,0.0256
653.00,0.0229
652.00,0.0207
651.00,0.0189
650.00,0.0177
649.00,0.0171
648.00,0.0171
647.00,0.0178
646.00,0.0188
645.00,0.0198
644.00,0.0202
643.00,0.0198
642.00,0.0185
641.00,0.0168
640.00,0.0153
639.00,0.0141
638.00,0.0133
637.00,0.0129
636.00,0.0128
635.00,0.0128
634.00,0.0129
633.00,0.0131
632.00,0.0136
631.00,0.0144
630.00,0.0152
629.00,0.0161
628.00,0.0173
627.00,0.0186
626.00,0.0200
625.00,0.0217
624.00,0.0237
623.00,0.0259
622.00,0.0281
621.00,0.0303
620.00,0.0326
619.00,0.0352
618.00,0.0380
617.00,0.0409
616.00,0.0437
615.00,0.0463
614.00,0.0485
613.00,0.0506
612.00,0.0528
611.00,0.0550
610.00,0.0571
609.00,0.0593
608.00,0.0618
607.00,0.0643
606.00,0.0667
605.00,0.0690
604.00,0.0712
603.00,0.0728
602.00,0.0738
601.00,0.0745
600.00,0.0753
599.00,0.0759
598.00,0.0763
597.00,0.0767
596.00,0.0770
595.00,0.0770
594.00,0.0764
593.00,0.0755
592.00,0.0749
591.00,0.0745
590.00,0.0740
589.00,0.0736
588.00,0.0734
587.00,0.0732
586.00,0.0731
585.00,0.0735
584.00,0.0746
583.00,0.0758
582.00,0.0767
581.00,0.0774
580.00,0.0782
579.00,0.0790
578.00,0.0792
577.00,0.0791
576.00,0.0789
575.00,0.0786
574.00,0.0778
573.00,0.0765
572.00,0.0752
571.00,0.0736
570.00,0.0719
569.00,0.0702
568.00,0.0686
567.00,0.0669
566.00,0.0651
565.00,0.0635
564.00,0.0625
563.00,0.0614
562.00,0.0602
561.00,0.0591
560.00,0.0582
559.00,0.0572
558.00,0.0560
557.00,0.0549
556.00,0.0540
555.00,0.0531
554.00,0.0518
553.00,0.0506
552.00,0.0498
551.00,0.0496
550.00,0.0495
549.00,0.0496
548.00,0.0498
547.00,0.0497
546.00,0.0494
545.00,0.0494
544.00,0.0502
543.00,0.0510
542.00,0.0514
541.00,0.0514
540.00,0.0514
539.00,0.0511
538.00,0.0500
537.00,0.0486
536.00,0.0477
535.00,0.0473
534.00,0.0469
533.00,0.0466
532.00,0.0464
531.00,0.0461
530.00,0.0453
529.00,0.0443
528.00,0.0434
527.00,0.0425
526.00,0.0417
525.00,0.0413
524.00,0.0413
523.00,0.0413
522.00,0.0412
521.00,0.0412
520.00,0.0416
519.00,0.0419
518.00,0.0415
517.00,0.0408
516.00,0.0402
515.00,0.0394
514.00,0.0383
513.00,0.0372
512.00,0.0362
511.00,0.0349
510.00,0.0331
509.00,0.0313
508.00,0.0300
507.00,0.0290
506.00,0.0281
505.00,0.0275
504.00,0.0272
503.00,0.0268
502.00,0.0259
501.00,0.0249
500.00,0.0246
499.00,0.0244
498.00,0.0238
497.00,0.0229
496.00,0.0220
495.00,0.0208
494.00,0.0195
493.00,0.0190
492.00,0.0196
491.00,0.0207
490.00,0.0211
489.00,0.0207
488.00,0.0199
487.00,0.0191
486.00,0.0183
485.00,0.0181
484.00,0.0187
483.00,0.0191
482.00,0.0185
481.00,0.0175
480.00,0.0168
479.00,0.0166
478.00,0.0167
477.00,0.0175
476.00,0.0189
475.00,0.0198
474.00,0.0194
473.00,0.0182
472.00,0.0177
471.00,0.0175
470.00,0.0169
469.00,0.0162
468.00,0.0162
467.00,0.0163
466.00,0.0161
465.00,0.0158
464.00,0.0160
463.00,0.0161
462.00,0.0151
461.00,0.0133
460.00,0.0121
459.00,0.0116
458.00,0.0113
457.00,0.0111
456.00,0.0108
455.00,0.0103
454.00,0.0084
453.00,0.0068
452.00,0.0061
451.00,0.0059
450.00,0.0057
