Created as New Dataset,Sample 001 By Administrator Date Monday, June 09 2025
cm-1,A
4000.00,0.0077
3999.00,0.0077
3998.00,0.0077
3997.00,0.0077
3996.00,0.0077
3995.00,0.0076
3994.00,0.0076
3993.00,0.0076
3992.00,0.0076
3991.00,0.0076
3990.00,0.0077
3989.00,0.0077
3988.00,0.0077
3987.00,0.0077
3986.00,0.0077
3985.00,0.0077
3984.00,0.0077
3983.00,0.0077
3982.00,0.0077
3981.00,0.0077
3980.00,0.0077
3979.00,0.0078
3978.00,0.0078
3977.00,0.0078
3976.00,0.0078
3975.00,0.0078
3974.00,0.0078
3973.00,0.0078
3972.00,0.0077
3971.00,0.0077
3970.00,0.0077
3969.00,0.0077
3968.00,0.0077
3967.00,0.0077
3966.00,0.0077
3965.00,0.0077
3964.00,0.0077
3963.00,0.0078
3962.00,0.0078
3961.00,0.0078
3960.00,0.0078
3959.00,0.0078
3958.00,0.0078
3957.00,0.0078
3956.00,0.0079
3955.00,0.0079
3954.00,0.0079
3953.00,0.0079
3952.00,0.0079
3951.00,0.0079
3950.00,0.0079
3949.00,0.0079
3948.00,0.0079
3947.00,0.0079
3946.00,0.0079
3945.00,0.0079
3944.00,0.0079
3943.00,0.0078
3942.00,0.0078
3941.00,0.0077
3940.00,0.0077
3939.00,0.0078
3938.00,0.0078
3937.00,0.0078
3936.00,0.0079
3935.00,0.0079
3934.00,0.0080
3933.00,0.0080
3932.00,0.0080
3931.00,0.0079
3930.00,0.0078
3929.00,0.0078
3928.00,0.0078
3927.00,0.0078
3926.00,0.0078
3925.00,0.0078
3924.00,0.0078
3923.00,0.0078
3922.00,0.0078
3921.00,0.0079
3920.00,0.0080
3919.00,0.0080
3918.00,0.0080
3917.00,0.0080
3916.00,0.0079
3915.00,0.0078
3914.00,0.0078
3913.00,0.0078
3912.00,0.0077
3911.00,0.0077
3910.00,0.0076
3909.00,0.0076
3908.00,0.0077
3907.00,0.0077
3906.00,0.0078
3905.00,0.0079
3904.00,0.0080
3903.00,0.0080
3902.00,0.0081
3901.00,0.0081
3900.00,0.0081
3899.00,0.0080
3898.00,0.0079
3897.00,0.0078
3896.00,0.0078
3895.00,0.0078
3894.00,0.0078
3893.00,0.0078
3892.00,0.0078
3891.00,0.0078
3890.00,0.0077
3889.00,0.0078
3888.00,0.0079
3887.00,0.0080
3886.00,0.0080
3885.00,0.0080
3884.00,0.0080
3883.00,0.0080
3882.00,0.0080
3881.00,0.0079
3880.00,0.0079
3879.00,0.0078
3878.00,0.0078
3877.00,0.0079
3876.00,0.0080
3875.00,0.0080
3874.00,0.0080
3873.00,0.0079
3872.00,0.0079
3871.00,0.0080
3870.00,0.0079
3869.00,0.0079
3868.00,0.0079
3867.00,0.0079
3866.00,0.0080
3865.00,0.0081
3864.00,0.0081
3863.00,0.0080
3862.00,0.0080
3861.00,0.0079
3860.00,0.0079
3859.00,0.0079
3858.00,0.0078
3857.00,0.0076
3856.00,0.0075
3855.00,0.0076
3854.00,0.0077
3853.00,0.0078
3852.00,0.0078
3851.00,0.0079
3850.00,0.0080
3849.00,0.0081
3848.00,0.0080
3847.00,0.0080
3846.00,0.0079
3845.00,0.0079
3844.00,0.0079
3843.00,0.0079
3842.00,0.0079
3841.00,0.0079
3840.00,0.0080
3839.00,0.0080
3838.00,0.0080
3837.00,0.0080
3836.00,0.0080
3835.00,0.0079
3834.00,0.0079
3833.00,0.0079
3832.00,0.0079
3831.00,0.0079
3830.00,0.0079
3829.00,0.0079
3828.00,0.0079
3827.00,0.0078
3826.00,0.0077
3825.00,0.0077
3824.00,0.0077
3823.00,0.0079
3822.00,0.0080
3821.00,0.0081
3820.00,0.0080
3819.00,0.0079
3818.00,0.0079
3817.00,0.0080
3816.00,0.0079
3815.00,0.0079
3814.00,0.0078
3813.00,0.0078
3812.00,0.0077
3811.00,0.0077
3810.00,0.0077
3809.00,0.0076
3808.00,0.0077
3807.00,0.0077
3806.00,0.0077
3805.00,0.0078
3804.00,0.0079
3803.00,0.0080
3802.00,0.0081
3801.00,0.0081
3800.00,0.0080
3799.00,0.0081
3798.00,0.0081
3797.00,0.0081
3796.00,0.0080
3795.00,0.0078
3794.00,0.0078
3793.00,0.0077
3792.00,0.0077
3791.00,0.0076
3790.00,0.0076
3789.00,0.0076
3788.00,0.0076
3787.00,0.0076
3786.00,0.0077
3785.00,0.0077
3784.00,0.0078
3783.00,0.0078
3782.00,0.0078
3781.00,0.0079
3780.00,0.0079
3779.00,0.0078
3778.00,0.0078
3777.00,0.0078
3776.00,0.0078
3775.00,0.0078
3774.00,0.0079
3773.00,0.0079
3772.00,0.0079
3771.00,0.0080
3770.00,0.0080
3769.00,0.0081
3768.00,0.0081
3767.00,0.0082
3766.00,0.0082
3765.00,0.0082
3764.00,0.0082
3763.00,0.0081
3762.00,0.0082
3761.00,0.0083
3760.00,0.0083
3759.00,0.0083
3758.00,0.0082
3757.00,0.0082
3756.00,0.0083
3755.00,0.0083
3754.00,0.0084
3753.00,0.0085
3752.00,0.0086
3751.00,0.0086
3750.00,0.0087
3749.00,0.0088
3748.00,0.0089
3747.00,0.0089
3746.00,0.0089
3745.00,0.0090
3744.00,0.0089
3743.00,0.0089
3742.00,0.0089
3741.00,0.0089
3740.00,0.0089
3739.00,0.0090
3738.00,0.0091
3737.00,0.0092
3736.00,0.0092
3735.00,0.0091
3734.00,0.0090
3733.00,0.0089
3732.00,0.0089
3731.00,0.0089
3730.00,0.0089
3729.00,0.0090
3728.00,0.0090
3727.00,0.0091
3726.00,0.0091
3725.00,0.0090
3724.00,0.0090
3723.00,0.0090
3722.00,0.0090
3721.00,0.0090
3720.00,0.0090
3719.00,0.0090
3718.00,0.0090
3717.00,0.0091
3716.00,0.0091
3715.00,0.0091
3714.00,0.0093
3713.00,0.0095
3712.00,0.0096
3711.00,0.0098
3710.00,0.0098
3709.00,0.0099
3708.00,0.0100
3707.00,0.0100
3706.00,0.0100
3705.00,0.0101
3704.00,0.0101
3703.00,0.0102
3702.00,0.0102
3701.00,0.0102
3700.00,0.0102
3699.00,0.0103
3698.00,0.0104
3697.00,0.0105
3696.00,0.0106
3695.00,0.0107
3694.00,0.0108
3693.00,0.0110
3692.00,0.0112
3691.00,0.0113
3690.00,0.0115
3689.00,0.0117
3688.00,0.0119
3687.00,0.0121
3686.00,0.0123
3685.00,0.0125
3684.00,0.0126
3683.00,0.0128
3682.00,0.0130
3681.00,0.0132
3680.00,0.0134
3679.00,0.0135
3678.00,0.0138
3677.00,0.0141
3676.00,0.0145
3675.00,0.0148
3674.00,0.0151
3673.00,0.0155
3672.00,0.0160
3671.00,0.0164
3670.00,0.0167
3669.00,0.0169
3668.00,0.0171
3667.00,0.0174
3666.00,0.0177
3665.00,0.0180
3664.00,0.0183
3663.00,0.0186
3662.00,0.0188
3661.00,0.0191
3660.00,0.0195
3659.00,0.0199
3658.00,0.0204
3657.00,0.0210
3656.00,0.0216
3655.00,0.0222
3654.00,0.0227
3653.00,0.0232
3652.00,0.0238
3651.00,0.0244
3650.00,0.0251
3649.00,0.0258
3648.00,0.0264
3647.00,0.0270
3646.00,0.0275
3645.00,0.0280
3644.00,0.0285
3643.00,0.0290
3642.00,0.0294
3641.00,0.0299
3640.00,0.0304
3639.00,0.0309
3638.00,0.0314
3637.00,0.0320
3636.00,0.0326
3635.00,0.0332
3634.00,0.0338
3633.00,0.0344
3632.00,0.0350
3631.00,0.0357
3630.00,0.0365
3629.00,0.0373
3628.00,0.0380
3627.00,0.0388
3626.00,0.0395
3625.00,0.0402
3624.00,0.0408
3623.00,0.0414
3622.00,0.0420
3621.00,0.0426
3620.00,0.0432
3619.00,0.0439
3618.00,0.0447
3617.00,0.0455
3616.00,0.0463
3615.00,0.0471
3614.00,0.0477
3613.00,0.0483
3612.00,0.0490
3611.00,0.0496
3610.00,0.0504
3609.00,0.0511
3608.00,0.0518
3607.00,0.0524
3606.00,0.0530
3605.00,0.0537
3604.00,0.0543
3603.00,0.0550
3602.00,0.0557
3601.00,0.0563
3600.00,0.0569
3599.00,0.0576
3598.00,0.0583
3597.00,0.0590
3596.00,0.0597
3595.00,0.0604
3594.00,0.0610
3593.00,0.0617
3592.00,0.0624
3591.00,0.0631
3590.00,0.0638
3589.00,0.0646
3588.00,0.0654
3587.00,0.0661
3586.00,0.0669
3585.00,0.0676
3584.00,0.0683
3583.00,0.0690
3582.00,0.0696
3581.00,0.0701
3580.00,0.0707
3579.00,0.0713
3578.00,0.0720
3577.00,0.0727
3576.00,0.0733
3575.00,0.0740
3574.00,0.0747
3573.00,0.0754
3572.00,0.0762
3571.00,0.0769
3570.00,0.0777
3569.00,0.0784
3568.00,0.0792
3567.00,0.0799
3566.00,0.0806
3565.00,0.0813
3564.00,0.0821
3563.00,0.0828
3562.00,0.0835
3561.00,0.0841
3560.00,0.0847
3559.00,0.0853
3558.00,0.0859
3557.00,0.0866
3556.00,0.0873
3555.00,0.0881
3554.00,0.0888
3553.00,0.0895
3552.00,0.0902
3551.00,0.0909
3550.00,0.0916
3549.00,0.0924
3548.00,0.0931
3547.00,0.0939
3546.00,0.0945
3545.00,0.0952
3544.00,0.0958
3543.00,0.0965
3542.00,0.0972
3541.00,0.0978
3540.00,0.0985
3539.00,0.0991
3538.00,0.0997
3537.00,0.1004
3536.00,0.1010
3535.00,0.1017
3534.00,0.1023
3533.00,0.1030
3532.00,0.1036
3531.00,0.1043
3530.00,0.1050
3529.00,0.1056
3528.00,0.1063
3527.00,0.1070
3526.00,0.1077
3525.00,0.1084
3524.00,0.1091
3523.00,0.1097
3522.00,0.1102
3521.00,0.1108
3520.00,0.1114
3519.00,0.1120
3518.00,0.1127
3517.00,0.1133
3516.00,0.1139
3515.00,0.1146
3514.00,0.1153
3513.00,0.1160
3512.00,0.1166
3511.00,0.1172
3510.00,0.1178
3509.00,0.1184
3508.00,0.1190
3507.00,0.1197
3506.00,0.1204
3505.00,0.1212
3504.00,0.1219
3503.00,0.1225
3502.00,0.1231
3501.00,0.1237
3500.00,0.1243
3499.00,0.1249
3498.00,0.1256
3497.00,0.1262
3496.00,0.1268
3495.00,0.1274
3494.00,0.1281
3493.00,0.1288
3492.00,0.1294
3491.00,0.1300
3490.00,0.1307
3489.00,0.1313
3488.00,0.1320
3487.00,0.1326
3486.00,0.1332
3485.00,0.1338
3484.00,0.1344
3483.00,0.1350
3482.00,0.1356
3481.00,0.1362
3480.00,0.1369
3479.00,0.1375
3478.00,0.1381
3477.00,0.1387
3476.00,0.1393
3475.00,0.1399
3474.00,0.1405
3473.00,0.1411
3472.00,0.1418
3471.00,0.1425
3470.00,0.1432
3469.00,0.1439
3468.00,0.1445
3467.00,0.1450
3466.00,0.1456
3465.00,0.1462
3464.00,0.1468
3463.00,0.1474
3462.00,0.1480
3461.00,0.1486
3460.00,0.1491
3459.00,0.1497
3458.00,0.1503
3457.00,0.1509
3456.00,0.1515
3455.00,0.1520
3454.00,0.1526
3453.00,0.1531
3452.00,0.1537
3451.00,0.1543
3450.00,0.1549
3449.00,0.1556
3448.00,0.1562
3447.00,0.1567
3446.00,0.1573
3445.00,0.1579
3444.00,0.1584
3443.00,0.1590
3442.00,0.1595
3441.00,0.1601
3440.00,0.1608
3439.00,0.1614
3438.00,0.1621
3437.00,0.1626
3436.00,0.1632
3435.00,0.1637
3434.00,0.1642
3433.00,0.1647
3432.00,0.1652
3431.00,0.1658
3430.00,0.1663
3429.00,0.1669
3428.00,0.1674
3427.00,0.1679
3426.00,0.1684
3425.00,0.1689
3424.00,0.1694
3423.00,0.1698
3422.00,0.1703
3421.00,0.1708
3420.00,0.1713
3419.00,0.1718
3418.00,0.1723
3417.00,0.1729
3416.00,0.1734
3415.00,0.1739
3414.00,0.1744
3413.00,0.1749
3412.00,0.1754
3411.00,0.1758
3410.00,0.1763
3409.00,0.1767
3408.00,0.1771
3407.00,0.1775
3406.00,0.1779
3405.00,0.1784
3404.00,0.1789
3403.00,0.1793
3402.00,0.1798
3401.00,0.1802
3400.00,0.1806
3399.00,0.1809
3398.00,0.1812
3397.00,0.1815
3396.00,0.1818
3395.00,0.1822
3394.00,0.1825
3393.00,0.1828
3392.00,0.1830
3391.00,0.1832
3390.00,0.1834
3389.00,0.1836
3388.00,0.1839
3387.00,0.1841
3386.00,0.1844
3385.00,0.1846
3384.00,0.1848
3383.00,0.1849
3382.00,0.1851
3381.00,0.1853
3380.00,0.1855
3379.00,0.1857
3378.00,0.1859
3377.00,0.1860
3376.00,0.1861
3375.00,0.1862
3374.00,0.1864
3373.00,0.1865
3372.00,0.1868
3371.00,0.1870
3370.00,0.1871
3369.00,0.1873
3368.00,0.1873
3367.00,0.1873
3366.00,0.1873
3365.00,0.1874
3364.00,0.1874
3363.00,0.1875
3362.00,0.1876
3361.00,0.1877
3360.00,0.1877
3359.00,0.1877
3358.00,0.1877
3357.00,0.1877
3356.00,0.1877
3355.00,0.1877
3354.00,0.1878
3353.00,0.1878
3352.00,0.1879
3351.00,0.1879
3350.00,0.1879
3349.00,0.1878
3348.00,0.1877
3347.00,0.1876
3346.00,0.1876
3345.00,0.1876
3344.00,0.1876
3343.00,0.1876
3342.00,0.1876
3341.00,0.1875
3340.00,0.1875
3339.00,0.1875
3338.00,0.1874
3337.00,0.1873
3336.00,0.1872
3335.00,0.1871
3334.00,0.1870
3333.00,0.1870
3332.00,0.1870
3331.00,0.1869
3330.00,0.1869
3329.00,0.1869
3328.00,0.1868
3327.00,0.1868
3326.00,0.1867
3325.00,0.1866
3324.00,0.1865
3323.00,0.1864
3322.00,0.1863
3321.00,0.1863
3320.00,0.1862
3319.00,0.1861
3318.00,0.1860
3317.00,0.1858
3316.00,0.1857
3315.00,0.1856
3314.00,0.1855
3313.00,0.1855
3312.00,0.1854
3311.00,0.1854
3310.00,0.1853
3309.00,0.1852
3308.00,0.1851
3307.00,0.1850
3306.00,0.1849
3305.00,0.1849
3304.00,0.1848
3303.00,0.1846
3302.00,0.1844
3301.00,0.1842
3300.00,0.1840
3299.00,0.1838
3298.00,0.1836
3297.00,0.1834
3296.00,0.1833
3295.00,0.1831
3294.00,0.1829
3293.00,0.1828
3292.00,0.1825
3291.00,0.1823
3290.00,0.1821
3289.00,0.1818
3288.00,0.1816
3287.00,0.1814
3286.00,0.1812
3285.00,0.1809
3284.00,0.1807
3283.00,0.1804
3282.00,0.1801
3281.00,0.1798
3280.00,0.1796
3279.00,0.1794
3278.00,0.1791
3277.00,0.1789
3276.00,0.1785
3275.00,0.1782
3274.00,0.1779
3273.00,0.1776
3272.00,0.1773
3271.00,0.1769
3270.00,0.1766
3269.00,0.1762
3268.00,0.1758
3267.00,0.1754
3266.00,0.1750
3265.00,0.1746
3264.00,0.1743
3263.00,0.1739
3262.00,0.1735
3261.00,0.1731
3260.00,0.1727
3259.00,0.1723
3258.00,0.1719
3257.00,0.1715
3256.00,0.1710
3255.00,0.1706
3254.00,0.1701
3253.00,0.1696
3252.00,0.1692
3251.00,0.1687
3250.00,0.1683
3249.00,0.1679
3248.00,0.1675
3247.00,0.1671
3246.00,0.1666
3245.00,0.1662
3244.00,0.1657
3243.00,0.1652
3242.00,0.1647
3241.00,0.1642
3240.00,0.1637
3239.00,0.1632
3238.00,0.1628
3237.00,0.1623
3236.00,0.1619
3235.00,0.1614
3234.00,0.1609
3233.00,0.1604
3232.00,0.1598
3231.00,0.1593
3230.00,0.1587
3229.00,0.1582
3228.00,0.1577
3227.00,0.1572
3226.00,0.1566
3225.00,0.1561
3224.00,0.1555
3223.00,0.1549
3222.00,0.1544
3221.00,0.1539
3220.00,0.1533
3219.00,0.1528
3218.00,0.1522
3217.00,0.1517
3216.00,0.1511
3215.00,0.1505
3214.00,0.1499
3213.00,0.1493
3212.00,0.1487
3211.00,0.1482
3210.00,0.1476
3209.00,0.1470
3208.00,0.1463
3207.00,0.1457
3206.00,0.1451
3205.00,0.1445
3204.00,0.1439
3203.00,0.1433
3202.00,0.1427
3201.00,0.1420
3200.00,0.1413
3199.00,0.1407
3198.00,0.1400
3197.00,0.1394
3196.00,0.1388
3195.00,0.1381
3194.00,0.1375
3193.00,0.1368
3192.00,0.1361
3191.00,0.1354
3190.00,0.1348
3189.00,0.1341
3188.00,0.1334
3187.00,0.1327
3186.00,0.1321
3185.00,0.1314
3184.00,0.1307
3183.00,0.1301
3182.00,0.1294
3181.00,0.1287
3180.00,0.1280
3179.00,0.1273
3178.00,0.1266
3177.00,0.1260
3176.00,0.1252
3175.00,0.1245
3174.00,0.1238
3173.00,0.1230
3172.00,0.1224
3171.00,0.1217
3170.00,0.1210
3169.00,0.1203
3168.00,0.1195
3167.00,0.1188
3166.00,0.1181
3165.00,0.1173
3164.00,0.1167
3163.00,0.1160
3162.00,0.1153
3161.00,0.1146
3160.00,0.1140
3159.00,0.1133
3158.00,0.1126
3157.00,0.1119
3156.00,0.1112
3155.00,0.1105
3154.00,0.1099
3153.00,0.1092
3152.00,0.1085
3151.00,0.1078
3150.00,0.1071
3149.00,0.1064
3148.00,0.1057
3147.00,0.1051
3146.00,0.1044
3145.00,0.1038
3144.00,0.1032
3143.00,0.1025
3142.00,0.1019
3141.00,0.1012
3140.00,0.1006
3139.00,0.1000
3138.00,0.0994
3137.00,0.0988
3136.00,0.0981
3135.00,0.0975
3134.00,0.0969
3133.00,0.0963
3132.00,0.0957
3131.00,0.0951
3130.00,0.0945
3129.00,0.0940
3128.00,0.0935
3127.00,0.0929
3126.00,0.0924
3125.00,0.0919
3124.00,0.0913
3123.00,0.0907
3122.00,0.0902
3121.00,0.0896
3120.00,0.0891
3119.00,0.0886
3118.00,0.0881
3117.00,0.0875
3116.00,0.0870
3115.00,0.0865
3114.00,0.0860
3113.00,0.0856
3112.00,0.0851
3111.00,0.0847
3110.00,0.0842
3109.00,0.0837
3108.00,0.0832
3107.00,0.0827
3106.00,0.0823
3105.00,0.0819
3104.00,0.0815
3103.00,0.0811
3102.00,0.0806
3101.00,0.0801
3100.00,0.0797
3099.00,0.0793
3098.00,0.0790
3097.00,0.0786
3096.00,0.0782
3095.00,0.0778
3094.00,0.0774
3093.00,0.0770
3092.00,0.0766
3091.00,0.0762
3090.00,0.0758
3089.00,0.0754
3088.00,0.0750
3087.00,0.0746
3086.00,0.0742
3085.00,0.0738
3084.00,0.0735
3083.00,0.0731
3082.00,0.0727
3081.00,0.0724
3080.00,0.0721
3079.00,0.0718
3078.00,0.0715
3077.00,0.0711
3076.00,0.0708
3075.00,0.0704
3074.00,0.0700
3073.00,0.0696
3072.00,0.0692
3071.00,0.0688
3070.00,0.0685
3069.00,0.0682
3068.00,0.0678
3067.00,0.0675
3066.00,0.0671
3065.00,0.0668
3064.00,0.0664
3063.00,0.0661
3062.00,0.0657
3061.00,0.0653
3060.00,0.0649
3059.00,0.0645
3058.00,0.0641
3057.00,0.0637
3056.00,0.0634
3055.00,0.0630
3054.00,0.0626
3053.00,0.0622
3052.00,0.0618
3051.00,0.0615
3050.00,0.0611
3049.00,0.0607
3048.00,0.0603
3047.00,0.0600
3046.00,0.0596
3045.00,0.0592
3044.00,0.0588
3043.00,0.0584
3042.00,0.0581
3041.00,0.0578
3040.00,0.0574
3039.00,0.0571
3038.00,0.0568
3037.00,0.0564
3036.00,0.0560
3035.00,0.0557
3034.00,0.0554
3033.00,0.0551
3032.00,0.0548
3031.00,0.0545
3030.00,0.0542
3029.00,0.0539
3028.00,0.0535
3027.00,0.0532
3026.00,0.0529
3025.00,0.0526
3024.00,0.0523
3023.00,0.0520
3022.00,0.0517
3021.00,0.0514
3020.00,0.0512
3019.00,0.0509
3018.00,0.0507
3017.00,0.0504
3016.00,0.0502
3015.00,0.0500
3014.00,0.0498
3013.00,0.0496
3012.00,0.0494
3011.00,0.0491
3010.00,0.0489
3009.00,0.0487
3008.00,0.0484
3007.00,0.0482
3006.00,0.0480
3005.00,0.0478
3004.00,0.0476
3003.00,0.0474
3002.00,0.0472
3001.00,0.0470
3000.00,0.0469
2999.00,0.0467
2998.00,0.0466
2997.00,0.0464
2996.00,0.0463
2995.00,0.0462
2994.00,0.0462
2993.00,0.0462
2992.00,0.0462
2991.00,0.0462
2990.00,0.0462
2989.00,0.0462
2988.00,0.0462
2987.00,0.0463
2986.00,0.0463
2985.00,0.0464
2984.00,0.0464
2983.00,0.0465
2982.00,0.0466
2981.00,0.0467
2980.00,0.0468
2979.00,0.0469
2978.00,0.0470
2977.00,0.0471
2976.00,0.0472
2975.00,0.0474
2974.00,0.0475
2973.00,0.0477
2972.00,0.0479
2971.00,0.0480
2970.00,0.0481
2969.00,0.0482
2968.00,0.0483
2967.00,0.0485
2966.00,0.0486
2965.00,0.0487
2964.00,0.0487
2963.00,0.0487
2962.00,0.0487
2961.00,0.0486
2960.00,0.0486
2959.00,0.0485
2958.00,0.0484
2957.00,0.0483
2956.00,0.0482
2955.00,0.0480
2954.00,0.0478
2953.00,0.0476
2952.00,0.0474
2951.00,0.0472
2950.00,0.0471
2949.00,0.0469
2948.00,0.0468
2947.00,0.0467
2946.00,0.0466
2945.00,0.0466
2944.00,0.0466
2943.00,0.0466
2942.00,0.0467
2941.00,0.0468
2940.00,0.0469
2939.00,0.0470
2938.00,0.0471
2937.00,0.0472
2936.00,0.0472
2935.00,0.0473
2934.00,0.0473
2933.00,0.0474
2932.00,0.0474
2931.00,0.0474
2930.00,0.0474
2929.00,0.0474
2928.00,0.0475
2927.00,0.0475
2926.00,0.0475
2925.00,0.0475
2924.00,0.0474
2923.00,0.0473
2922.00,0.0472
2921.00,0.0470
2920.00,0.0467
2919.00,0.0464
2918.00,0.0461
2917.00,0.0457
2916.00,0.0453
2915.00,0.0448
2914.00,0.0444
2913.00,0.0440
2912.00,0.0436
2911.00,0.0433
2910.00,0.0429
2909.00,0.0426
2908.00,0.0423
2907.00,0.0419
2906.00,0.0416
2905.00,0.0413
2904.00,0.0410
2903.00,0.0407
2902.00,0.0405
2901.00,0.0402
2900.00,0.0399
2899.00,0.0397
2898.00,0.0394
2897.00,0.0391
2896.00,0.0388
2895.00,0.0386
2894.00,0.0383
2893.00,0.0381
2892.00,0.0379
2891.00,0.0376
2890.00,0.0373
2889.00,0.0371
2888.00,0.0368
2887.00,0.0366
2886.00,0.0364
2885.00,0.0363
2884.00,0.0361
2883.00,0.0359
2882.00,0.0358
2881.00,0.0357
2880.00,0.0355
2879.00,0.0354
2878.00,0.0353
2877.00,0.0352
2876.00,0.0350
2875.00,0.0349
2874.00,0.0347
2873.00,0.0345
2872.00,0.0344
2871.00,0.0342
2870.00,0.0339
2869.00,0.0336
2868.00,0.0333
2867.00,0.0330
2866.00,0.0327
2865.00,0.0325
2864.00,0.0323
2863.00,0.0321
2862.00,0.0320
2861.00,0.0319
2860.00,0.0319
2859.00,0.0318
2858.00,0.0318
2857.00,0.0318
2856.00,0.0318
2855.00,0.0318
2854.00,0.0317
2853.00,0.0317
2852.00,0.0315
2851.00,0.0313
2850.00,0.0310
2849.00,0.0306
2848.00,0.0301
2847.00,0.0297
2846.00,0.0292
2845.00,0.0288
2844.00,0.0284
2843.00,0.0279
2842.00,0.0275
2841.00,0.0272
2840.00,0.0269
2839.00,0.0266
2838.00,0.0264
2837.00,0.0262
2836.00,0.0260
2835.00,0.0258
2834.00,0.0256
2833.00,0.0254
2832.00,0.0253
2831.00,0.0251
2830.00,0.0250
2829.00,0.0248
2828.00,0.0247
2827.00,0.0246
2826.00,0.0244
2825.00,0.0243
2824.00,0.0242
2823.00,0.0240
2822.00,0.0239
2821.00,0.0238
2820.00,0.0237
2819.00,0.0236
2818.00,0.0234
2817.00,0.0233
2816.00,0.0232
2815.00,0.0231
2814.00,0.0230
2813.00,0.0228
2812.00,0.0227
2811.00,0.0226
2810.00,0.0225
2809.00,0.0224
2808.00,0.0223
2807.00,0.0222
2806.00,0.0221
2805.00,0.0220
2804.00,0.0219
2803.00,0.0218
2802.00,0.0217
2801.00,0.0216
2800.00,0.0215
2799.00,0.0214
2798.00,0.0213
2797.00,0.0212
2796.00,0.0211
2795.00,0.0211
2794.00,0.0210
2793.00,0.0209
2792.00,0.0208
2791.00,0.0206
2790.00,0.0205
2789.00,0.0205
2788.00,0.0204
2787.00,0.0204
2786.00,0.0203
2785.00,0.0202
2784.00,0.0201
2783.00,0.0200
2782.00,0.0200
2781.00,0.0199
2780.00,0.0198
2779.00,0.0197
2778.00,0.0197
2777.00,0.0196
2776.00,0.0194
2775.00,0.0194
2774.00,0.0193
2773.00,0.0192
2772.00,0.0192
2771.00,0.0191
2770.00,0.0190
2769.00,0.0190
2768.00,0.0189
2767.00,0.0188
2766.00,0.0187
2765.00,0.0187
2764.00,0.0186
2763.00,0.0186
2762.00,0.0185
2761.00,0.0184
2760.00,0.0184
2759.00,0.0183
2758.00,0.0182
2757.00,0.0182
2756.00,0.0181
2755.00,0.0180
2754.00,0.0180
2753.00,0.0179
2752.00,0.0179
2751.00,0.0178
2750.00,0.0178
2749.00,0.0178
2748.00,0.0177
2747.00,0.0177
2746.00,0.0176
2745.00,0.0175
2744.00,0.0175
2743.00,0.0174
2742.00,0.0174
2741.00,0.0173
2740.00,0.0172
2739.00,0.0172
2738.00,0.0171
2737.00,0.0171
2736.00,0.0171
2735.00,0.0170
2734.00,0.0170
2733.00,0.0169
2732.00,0.0169
2731.00,0.0168
2730.00,0.0168
2729.00,0.0167
2728.00,0.0167
2727.00,0.0166
2726.00,0.0165
2725.00,0.0165
2724.00,0.0164
2723.00,0.0164
2722.00,0.0164
2721.00,0.0163
2720.00,0.0163
2719.00,0.0162
2718.00,0.0162
2717.00,0.0161
2716.00,0.0161
2715.00,0.0160
2714.00,0.0160
2713.00,0.0159
2712.00,0.0159
2711.00,0.0158
2710.00,0.0158
2709.00,0.0158
2708.00,0.0158
2707.00,0.0157
2706.00,0.0157
2705.00,0.0156
2704.00,0.0156
2703.00,0.0155
2702.00,0.0155
2701.00,0.0154
2700.00,0.0154
2699.00,0.0154
2698.00,0.0153
2697.00,0.0153
2696.00,0.0152
2695.00,0.0152
2694.00,0.0152
2693.00,0.0151
2692.00,0.0151
2691.00,0.0150
2690.00,0.0150
2689.00,0.0149
2688.00,0.0149
2687.00,0.0149
2686.00,0.0149
2685.00,0.0149
2684.00,0.0149
2683.00,0.0149
2682.00,0.0149
2681.00,0.0148
2680.00,0.0148
2679.00,0.0147
2678.00,0.0146
2677.00,0.0146
2676.00,0.0145
2675.00,0.0145
2674.00,0.0145
2673.00,0.0145
2672.00,0.0144
2671.00,0.0144
2670.00,0.0144
2669.00,0.0144
2668.00,0.0144
2667.00,0.0144
2666.00,0.0143
2665.00,0.0143
2664.00,0.0143
2663.00,0.0143
2662.00,0.0143
2661.00,0.0143
2660.00,0.0143
2659.00,0.0143
2658.00,0.0143
2657.00,0.0143
2656.00,0.0143
2655.00,0.0142
2654.00,0.0142
2653.00,0.0142
2652.00,0.0141
2651.00,0.0141
2650.00,0.0140
2649.00,0.0139
2648.00,0.0139
2647.00,0.0138
2646.00,0.0138
2645.00,0.0138
2644.00,0.0138
2643.00,0.0138
2642.00,0.0137
2641.00,0.0137
2640.00,0.0137
2639.00,0.0136
2638.00,0.0135
2637.00,0.0135
2636.00,0.0134
2635.00,0.0133
2634.00,0.0133
2633.00,0.0132
2632.00,0.0132
2631.00,0.0131
2630.00,0.0131
2629.00,0.0131
2628.00,0.0130
2627.00,0.0130
2626.00,0.0130
2625.00,0.0129
2624.00,0.0129
2623.00,0.0129
2622.00,0.0128
2621.00,0.0128
2620.00,0.0128
2619.00,0.0127
2618.00,0.0127
2617.00,0.0126
2616.00,0.0126
2615.00,0.0125
2614.00,0.0124
2613.00,0.0124
2612.00,0.0124
2611.00,0.0124
2610.00,0.0123
2609.00,0.0123
2608.00,0.0123
2607.00,0.0122
2606.00,0.0122
2605.00,0.0122
2604.00,0.0122
2603.00,0.0121
2602.00,0.0120
2601.00,0.0120
2600.00,0.0120
2599.00,0.0119
2598.00,0.0119
2597.00,0.0119
2596.00,0.0119
2595.00,0.0119
2594.00,0.0118
2593.00,0.0118
2592.00,0.0117
2591.00,0.0116
2590.00,0.0116
2589.00,0.0115
2588.00,0.0115
2587.00,0.0115
2586.00,0.0114
2585.00,0.0114
2584.00,0.0114
2583.00,0.0114
2582.00,0.0114
2581.00,0.0114
2580.00,0.0115
2579.00,0.0115
2578.00,0.0115
2577.00,0.0115
2576.00,0.0114
2575.00,0.0114
2574.00,0.0113
2573.00,0.0112
2572.00,0.0112
2571.00,0.0111
2570.00,0.0111
2569.00,0.0111
2568.00,0.0111
2567.00,0.0110
2566.00,0.0110
2565.00,0.0109
2564.00,0.0109
2563.00,0.0109
2562.00,0.0109
2561.00,0.0110
2560.00,0.0110
2559.00,0.0110
2558.00,0.0109
2557.00,0.0109
2556.00,0.0108
2555.00,0.0108
2554.00,0.0107
2553.00,0.0108
2552.00,0.0108
2551.00,0.0109
2550.00,0.0109
2549.00,0.0108
2548.00,0.0108
2547.00,0.0107
2546.00,0.0107
2545.00,0.0107
2544.00,0.0107
2543.00,0.0107
2542.00,0.0107
2541.00,0.0107
2540.00,0.0107
2539.00,0.0106
2538.00,0.0106
2537.00,0.0105
2536.00,0.0105
2535.00,0.0105
2534.00,0.0106
2533.00,0.0106
2532.00,0.0106
2531.00,0.0106
2530.00,0.0105
2529.00,0.0104
2528.00,0.0104
2527.00,0.0104
2526.00,0.0105
2525.00,0.0105
2524.00,0.0105
2523.00,0.0105
2522.00,0.0105
2521.00,0.0105
2520.00,0.0105
2519.00,0.0105
2518.00,0.0105
2517.00,0.0105
2516.00,0.0105
2515.00,0.0104
2514.00,0.0103
2513.00,0.0103
2512.00,0.0104
2511.00,0.0104
2510.00,0.0105
2509.00,0.0105
2508.00,0.0105
2507.00,0.0104
2506.00,0.0104
2505.00,0.0104
2504.00,0.0104
2503.00,0.0104
2502.00,0.0104
2501.00,0.0104
2500.00,0.0103
2499.00,0.0103
2498.00,0.0103
2497.00,0.0103
2496.00,0.0103
2495.00,0.0103
2494.00,0.0103
2493.00,0.0103
2492.00,0.0102
2491.00,0.0102
2490.00,0.0102
2489.00,0.0103
2488.00,0.0103
2487.00,0.0103
2486.00,0.0103
2485.00,0.0103
2484.00,0.0102
2483.00,0.0102
2482.00,0.0102
2481.00,0.0101
2480.00,0.0101
2479.00,0.0101
2478.00,0.0101
2477.00,0.0101
2476.00,0.0101
2475.00,0.0101
2474.00,0.0101
2473.00,0.0101
2472.00,0.0101
2471.00,0.0100
2470.00,0.0100
2469.00,0.0100
2468.00,0.0100
2467.00,0.0100
2466.00,0.0099
2465.00,0.0099
2464.00,0.0099
2463.00,0.0099
2462.00,0.0100
2461.00,0.0100
2460.00,0.0101
2459.00,0.0101
2458.00,0.0101
2457.00,0.0101
2456.00,0.0102
2455.00,0.0102
2454.00,0.0103
2453.00,0.0102
2452.00,0.0102
2451.00,0.0102
2450.00,0.0102
2449.00,0.0102
2448.00,0.0101
2447.00,0.0101
2446.00,0.0101
2445.00,0.0101
2444.00,0.0101
2443.00,0.0101
2442.00,0.0101
2441.00,0.0101
2440.00,0.0101
2439.00,0.0101
2438.00,0.0100
2437.00,0.0100
2436.00,0.0099
2435.00,0.0099
2434.00,0.0099
2433.00,0.0099
2432.00,0.0099
2431.00,0.0099
2430.00,0.0099
2429.00,0.0100
2428.00,0.0100
2427.00,0.0100
2426.00,0.0100
2425.00,0.0100
2424.00,0.0100
2423.00,0.0099
2422.00,0.0098
2421.00,0.0098
2420.00,0.0098
2419.00,0.0098
2418.00,0.0099
2417.00,0.0099
2416.00,0.0099
2415.00,0.0098
2414.00,0.0098
2413.00,0.0098
2412.00,0.0099
2411.00,0.0099
2410.00,0.0099
2409.00,0.0098
2408.00,0.0098
2407.00,0.0097
2406.00,0.0098
2405.00,0.0098
2404.00,0.0099
2403.00,0.0100
2402.00,0.0100
2401.00,0.0100
2400.00,0.0099
2399.00,0.0099
2398.00,0.0099
2397.00,0.0099
2396.00,0.0099
2395.00,0.0099
2394.00,0.0100
2393.00,0.0100
2392.00,0.0100
2391.00,0.0100
2390.00,0.0100
2389.00,0.0100
2388.00,0.0100
2387.00,0.0100
2386.00,0.0100
2385.00,0.0100
2384.00,0.0099
2383.00,0.0099
2382.00,0.0099
2381.00,0.0099
2380.00,0.0099
2379.00,0.0099
2378.00,0.0098
2377.00,0.0098
2376.00,0.0098
2375.00,0.0099
2374.00,0.0099
2373.00,0.0100
2372.00,0.0100
2371.00,0.0100
2370.00,0.0099
2369.00,0.0099
2368.00,0.0099
2367.00,0.0099
2366.00,0.0099
2365.00,0.0100
2364.00,0.0101
2363.00,0.0102
2362.00,0.0103
2361.00,0.0104
2360.00,0.0103
2359.00,0.0103
2358.00,0.0102
2357.00,0.0102
2356.00,0.0103
2355.00,0.0104
2354.00,0.0104
2353.00,0.0105
2352.00,0.0105
2351.00,0.0105
2350.00,0.0104
2349.00,0.0105
2348.00,0.0106
2347.00,0.0108
2346.00,0.0110
2345.00,0.0111
2344.00,0.0110
2343.00,0.0109
2342.00,0.0108
2341.00,0.0109
2340.00,0.0109
2339.00,0.0110
2338.00,0.0110
2337.00,0.0111
2336.00,0.0111
2335.00,0.0112
2334.00,0.0111
2333.00,0.0111
2332.00,0.0110
2331.00,0.0110
2330.00,0.0110
2329.00,0.0110
2328.00,0.0112
2327.00,0.0115
2326.00,0.0119
2325.00,0.0123
2324.00,0.0125
2323.00,0.0124
2322.00,0.0123
2321.00,0.0121
2320.00,0.0120
2319.00,0.0119
2318.00,0.0118
2317.00,0.0118
2316.00,0.0118
2315.00,0.0118
2314.00,0.0118
2313.00,0.0118
2312.00,0.0118
2311.00,0.0118
2310.00,0.0118
2309.00,0.0118
2308.00,0.0117
2307.00,0.0116
2306.00,0.0116
2305.00,0.0116
2304.00,0.0116
2303.00,0.0116
2302.00,0.0117
2301.00,0.0117
2300.00,0.0117
2299.00,0.0119
2298.00,0.0120
2297.00,0.0122
2296.00,0.0122
2295.00,0.0123
2294.00,0.0123
2293.00,0.0123
2292.00,0.0123
2291.00,0.0124
2290.00,0.0125
2289.00,0.0126
2288.00,0.0126
2287.00,0.0126
2286.00,0.0126
2285.00,0.0126
2284.00,0.0126
2283.00,0.0126
2282.00,0.0126
2281.00,0.0126
2280.00,0.0126
2279.00,0.0125
2278.00,0.0124
2277.00,0.0123
2276.00,0.0122
2275.00,0.0122
2274.00,0.0122
2273.00,0.0122
2272.00,0.0123
2271.00,0.0124
2270.00,0.0124
2269.00,0.0124
2268.00,0.0123
2267.00,0.0123
2266.00,0.0122
2265.00,0.0121
2264.00,0.0121
2263.00,0.0120
2262.00,0.0119
2261.00,0.0118
2260.00,0.0117
2259.00,0.0117
2258.00,0.0118
2257.00,0.0118
2256.00,0.0118
2255.00,0.0118
2254.00,0.0117
2253.00,0.0116
2252.00,0.0116
2251.00,0.0115
2250.00,0.0115
2249.00,0.0116
2248.00,0.0116
2247.00,0.0116
2246.00,0.0115
2245.00,0.0114
2244.00,0.0114
2243.00,0.0115
2242.00,0.0115
2241.00,0.0116
2240.00,0.0117
2239.00,0.0116
2238.00,0.0116
2237.00,0.0117
2236.00,0.0116
2235.00,0.0116
2234.00,0.0114
2233.00,0.0114
2232.00,0.0114
2231.00,0.0115
2230.00,0.0115
2229.00,0.0115
2228.00,0.0115
2227.00,0.0115
2226.00,0.0115
2225.00,0.0116
2224.00,0.0116
2223.00,0.0116
2222.00,0.0115
2221.00,0.0116
2220.00,0.0116
2219.00,0.0117
2218.00,0.0116
2217.00,0.0116
2216.00,0.0116
2215.00,0.0117
2214.00,0.0116
2213.00,0.0116
2212.00,0.0115
2211.00,0.0115
2210.00,0.0117
2209.00,0.0119
2208.00,0.0121
2207.00,0.0121
2206.00,0.0119
2205.00,0.0117
2204.00,0.0115
2203.00,0.0114
2202.00,0.0113
2201.00,0.0113
2200.00,0.0112
2199.00,0.0111
2198.00,0.0111
2197.00,0.0112
2196.00,0.0113
2195.00,0.0114
2194.00,0.0113
2193.00,0.0113
2192.00,0.0113
2191.00,0.0113
2190.00,0.0113
2189.00,0.0115
2188.00,0.0116
2187.00,0.0118
2186.00,0.0120
2185.00,0.0121
2184.00,0.0119
2183.00,0.0115
2182.00,0.0111
2181.00,0.0108
2180.00,0.0107
2179.00,0.0106
2178.00,0.0106
2177.00,0.0107
2176.00,0.0109
2175.00,0.0111
2174.00,0.0112
2173.00,0.0113
2172.00,0.0113
2171.00,0.0114
2170.00,0.0114
2169.00,0.0115
2168.00,0.0116
2167.00,0.0116
2166.00,0.0115
2165.00,0.0113
2164.00,0.0112
2163.00,0.0112
2162.00,0.0113
2161.00,0.0111
2160.00,0.0104
2159.00,0.0092
2158.00,0.0079
2157.00,0.0073
2156.00,0.0073
2155.00,0.0076
2154.00,0.0080
2153.00,0.0085
2152.00,0.0089
2151.00,0.0092
2150.00,0.0092
2149.00,0.0092
2148.00,0.0091
2147.00,0.0090
2146.00,0.0091
2145.00,0.0093
2144.00,0.0096
2143.00,0.0098
2142.00,0.0097
2141.00,0.0096
2140.00,0.0095
2139.00,0.0096
2138.00,0.0097
2137.00,0.0099
2136.00,0.0100
2135.00,0.0100
2134.00,0.0099
2133.00,0.0099
2132.00,0.0101
2131.00,0.0104
2130.00,0.0107
2129.00,0.0111
2128.00,0.0114
2127.00,0.0116
2126.00,0.0118
2125.00,0.0119
2124.00,0.0121
2123.00,0.0122
2122.00,0.0122
2121.00,0.0122
2120.00,0.0121
2119.00,0.0121
2118.00,0.0121
2117.00,0.0123
2116.00,0.0126
2115.00,0.0128
2114.00,0.0129
2113.00,0.0128
2112.00,0.0127
2111.00,0.0127
2110.00,0.0127
2109.00,0.0128
2108.00,0.0130
2107.00,0.0131
2106.00,0.0131
2105.00,0.0131
2104.00,0.0130
2103.00,0.0129
2102.00,0.0129
2101.00,0.0129
2100.00,0.0130
2099.00,0.0130
2098.00,0.0130
2097.00,0.0129
2096.00,0.0128
2095.00,0.0126
2094.00,0.0125
2093.00,0.0124
2092.00,0.0123
2091.00,0.0123
2090.00,0.0124
2089.00,0.0125
2088.00,0.0126
2087.00,0.0126
2086.00,0.0126
2085.00,0.0126
2084.00,0.0127
2083.00,0.0127
2082.00,0.0126
2081.00,0.0126
2080.00,0.0126
2079.00,0.0127
2078.00,0.0127
2077.00,0.0125
2076.00,0.0124
2075.00,0.0122
2074.00,0.0121
2073.00,0.0122
2072.00,0.0122
2071.00,0.0122
2070.00,0.0121
2069.00,0.0119
2068.00,0.0117
2067.00,0.0115
2066.00,0.0113
2065.00,0.0111
2064.00,0.0112
2063.00,0.0113
2062.00,0.0113
2061.00,0.0113
2060.00,0.0113
2059.00,0.0113
2058.00,0.0113
2057.00,0.0113
2056.00,0.0112
2055.00,0.0111
2054.00,0.0110
2053.00,0.0112
2052.00,0.0114
2051.00,0.0116
2050.00,0.0115
2049.00,0.0113
2048.00,0.0110
2047.00,0.0107
2046.00,0.0104
2045.00,0.0104
2044.00,0.0104
2043.00,0.0103
2042.00,0.0103
2041.00,0.0102
2040.00,0.0102
2039.00,0.0102
2038.00,0.0101
2037.00,0.0101
2036.00,0.0099
2035.00,0.0097
2034.00,0.0093
2033.00,0.0091
2032.00,0.0091
2031.00,0.0092
2030.00,0.0092
2029.00,0.0092
2028.00,0.0092
2027.00,0.0091
2026.00,0.0089
2025.00,0.0088
2024.00,0.0088
2023.00,0.0088
2022.00,0.0089
2021.00,0.0090
2020.00,0.0091
2019.00,0.0091
2018.00,0.0091
2017.00,0.0091
2016.00,0.0091
2015.00,0.0090
2014.00,0.0088
2013.00,0.0086
2012.00,0.0087
2011.00,0.0087
2010.00,0.0086
2009.00,0.0085
2008.00,0.0084
2007.00,0.0082
2006.00,0.0081
2005.00,0.0081
2004.00,0.0083
2003.00,0.0084
2002.00,0.0084
2001.00,0.0087
2000.00,0.0090
1999.00,0.0093
1998.00,0.0093
1997.00,0.0092
1996.00,0.0092
1995.00,0.0093
1994.00,0.0093
1993.00,0.0093
1992.00,0.0094
1991.00,0.0094
1990.00,0.0095
1989.00,0.0095
1988.00,0.0096
1987.00,0.0095
1986.00,0.0094
1985.00,0.0095
1984.00,0.0097
1983.00,0.0099
1982.00,0.0101
1981.00,0.0101
1980.00,0.0101
1979.00,0.0097
1978.00,0.0091
1977.00,0.0085
1976.00,0.0082
1975.00,0.0081
1974.00,0.0080
1973.00,0.0080
1972.00,0.0080
1971.00,0.0080
1970.00,0.0080
1969.00,0.0080
1968.00,0.0081
1967.00,0.0081
1966.00,0.0080
1965.00,0.0080
1964.00,0.0079
1963.00,0.0078
1962.00,0.0077
1961.00,0.0077
1960.00,0.0076
1959.00,0.0075
1958.00,0.0074
1957.00,0.0075
1956.00,0.0077
1955.00,0.0078
1954.00,0.0078
1953.00,0.0077
1952.00,0.0077
1951.00,0.0078
1950.00,0.0080
1949.00,0.0082
1948.00,0.0083
1947.00,0.0084
1946.00,0.0082
1945.00,0.0080
1944.00,0.0078
1943.00,0.0076
1942.00,0.0076
1941.00,0.0077
1940.00,0.0080
1939.00,0.0082
1938.00,0.0082
1937.00,0.0083
1936.00,0.0084
1935.00,0.0084
1934.00,0.0083
1933.00,0.0083
1932.00,0.0082
1931.00,0.0083
1930.00,0.0084
1929.00,0.0084
1928.00,0.0084
1927.00,0.0083
1926.00,0.0081
1925.00,0.0081
1924.00,0.0081
1923.00,0.0082
1922.00,0.0082
1921.00,0.0082
1920.00,0.0082
1919.00,0.0083
1918.00,0.0083
1917.00,0.0085
1916.00,0.0086
1915.00,0.0086
1914.00,0.0085
1913.00,0.0084
1912.00,0.0083
1911.00,0.0083
1910.00,0.0083
1909.00,0.0083
1908.00,0.0083
1907.00,0.0083
1906.00,0.0083
1905.00,0.0083
1904.00,0.0082
1903.00,0.0082
1902.00,0.0083
1901.00,0.0083
1900.00,0.0083
1899.00,0.0083
1898.00,0.0083
1897.00,0.0083
1896.00,0.0083
1895.00,0.0083
1894.00,0.0082
1893.00,0.0081
1892.00,0.0081
1891.00,0.0081
1890.00,0.0080
1889.00,0.0080
1888.00,0.0079
1887.00,0.0079
1886.00,0.0079
1885.00,0.0078
1884.00,0.0078
1883.00,0.0078
1882.00,0.0078
1881.00,0.0078
1880.00,0.0079
1879.00,0.0079
1878.00,0.0079
1877.00,0.0079
1876.00,0.0080
1875.00,0.0080
1874.00,0.0080
1873.00,0.0080
1872.00,0.0080
1871.00,0.0079
1870.00,0.0077
1869.00,0.0076
1868.00,0.0075
1867.00,0.0075
1866.00,0.0076
1865.00,0.0077
1864.00,0.0078
1863.00,0.0077
1862.00,0.0077
1861.00,0.0076
1860.00,0.0076
1859.00,0.0076
1858.00,0.0077
1857.00,0.0077
1856.00,0.0078
1855.00,0.0078
1854.00,0.0078
1853.00,0.0078
1852.00,0.0078
1851.00,0.0077
1850.00,0.0077
1849.00,0.0076
1848.00,0.0076
1847.00,0.0075
1846.00,0.0076
1845.00,0.0078
1844.00,0.0079
1843.00,0.0078
1842.00,0.0077
1841.00,0.0076
1840.00,0.0077
1839.00,0.0077
1838.00,0.0077
1837.00,0.0076
1836.00,0.0076
1835.00,0.0076
1834.00,0.0076
1833.00,0.0076
1832.00,0.0077
1831.00,0.0078
1830.00,0.0078
1829.00,0.0077
1828.00,0.0077
1827.00,0.0077
1826.00,0.0078
1825.00,0.0078
1824.00,0.0078
1823.00,0.0078
1822.00,0.0078
1821.00,0.0079
1820.00,0.0079
1819.00,0.0078
1818.00,0.0076
1817.00,0.0075
1816.00,0.0075
1815.00,0.0075
1814.00,0.0076
1813.00,0.0077
1812.00,0.0077
1811.00,0.0077
1810.00,0.0077
1809.00,0.0077
1808.00,0.0077
1807.00,0.0077
1806.00,0.0077
1805.00,0.0077
1804.00,0.0077
1803.00,0.0077
1802.00,0.0076
1801.00,0.0076
1800.00,0.0077
1799.00,0.0078
1798.00,0.0077
1797.00,0.0076
1796.00,0.0075
1795.00,0.0075
1794.00,0.0076
1793.00,0.0077
1792.00,0.0078
1791.00,0.0077
1790.00,0.0077
1789.00,0.0077
1788.00,0.0077
1787.00,0.0078
1786.00,0.0077
1785.00,0.0077
1784.00,0.0077
1783.00,0.0076
1782.00,0.0076
1781.00,0.0076
1780.00,0.0076
1779.00,0.0076
1778.00,0.0077
1777.00,0.0077
1776.00,0.0076
1775.00,0.0075
1774.00,0.0075
1773.00,0.0076
1772.00,0.0078
1771.00,0.0079
1770.00,0.0078
1769.00,0.0077
1768.00,0.0077
1767.00,0.0077
1766.00,0.0077
1765.00,0.0077
1764.00,0.0077
1763.00,0.0077
1762.00,0.0077
1761.00,0.0078
1760.00,0.0079
1759.00,0.0081
1758.00,0.0083
1757.00,0.0084
1756.00,0.0086
1755.00,0.0087
1754.00,0.0088
1753.00,0.0090
1752.00,0.0093
1751.00,0.0095
1750.00,0.0097
1749.00,0.0099
1748.00,0.0102
1747.00,0.0105
1746.00,0.0107
1745.00,0.0110
1744.00,0.0112
1743.00,0.0114
1742.00,0.0116
1741.00,0.0119
1740.00,0.0123
1739.00,0.0126
1738.00,0.0126
1737.00,0.0126
1736.00,0.0127
1735.00,0.0131
1734.00,0.0134
1733.00,0.0135
1732.00,0.0137
1731.00,0.0139
1730.00,0.0141
1729.00,0.0143
1728.00,0.0147
1727.00,0.0150
1726.00,0.0153
1725.00,0.0156
1724.00,0.0159
1723.00,0.0163
1722.00,0.0165
1721.00,0.0168
1720.00,0.0171
1719.00,0.0175
1718.00,0.0178
1717.00,0.0183
1716.00,0.0188
1715.00,0.0194
1714.00,0.0200
1713.00,0.0205
1712.00,0.0211
1711.00,0.0217
1710.00,0.0222
1709.00,0.0228
1708.00,0.0235
1707.00,0.0243
1706.00,0.0252
1705.00,0.0260
1704.00,0.0268
1703.00,0.0274
1702.00,0.0283
1701.00,0.0300
1700.00,0.0320
1699.00,0.0336
1698.00,0.0346
1697.00,0.0358
1696.00,0.0376
1695.00,0.0398
1694.00,0.0417
1693.00,0.0433
1692.00,0.0450
1691.00,0.0467
1690.00,0.0486
1689.00,0.0504
1688.00,0.0521
1687.00,0.0536
1686.00,0.0553
1685.00,0.0577
1684.00,0.0607
1683.00,0.0635
1682.00,0.0656
1681.00,0.0674
1680.00,0.0692
1679.00,0.0710
1678.00,0.0728
1677.00,0.0748
1676.00,0.0772
1675.00,0.0798
1674.00,0.0821
1673.00,0.0841
1672.00,0.0859
1671.00,0.0880
1670.00,0.0903
1669.00,0.0929
1668.00,0.0955
1667.00,0.0977
1666.00,0.0997
1665.00,0.1017
1664.00,0.1040
1663.00,0.1067
1662.00,0.1093
1661.00,0.1118
1660.00,0.1142
1659.00,0.1163
1658.00,0.1183
1657.00,0.1198
1656.00,0.1211
1655.00,0.1224
1654.00,0.1243
1653.00,0.1270
1652.00,0.1298
1651.00,0.1317
1650.00,0.1327
1649.00,0.1334
1648.00,0.1341
1647.00,0.1349
1646.00,0.1359
1645.00,0.1369
1644.00,0.1377
1643.00,0.1382
1642.00,0.1386
1641.00,0.1388
1640.00,0.1389
1639.00,0.1390
1638.00,0.1388
1637.00,0.1386
1636.00,0.1384
1635.00,0.1382
1634.00,0.1379
1633.00,0.1373
1632.00,0.1364
1631.00,0.1354
1630.00,0.1341
1629.00,0.1326
1628.00,0.1310
1627.00,0.1293
1626.00,0.1276
1625.00,0.1258
1624.00,0.1237
1623.00,0.1214
1622.00,0.1191
1621.00,0.1169
1620.00,0.1149
1619.00,0.1127
1618.00,0.1102
1617.00,0.1073
1616.00,0.1044
1615.00,0.1018
1614.00,0.0994
1613.00,0.0971
1612.00,0.0947
1611.00,0.0922
1610.00,0.0896
1609.00,0.0872
1608.00,0.0847
1607.00,0.0825
1606.00,0.0804
1605.00,0.0783
1604.00,0.0763
1603.00,0.0744
1602.00,0.0725
1601.00,0.0706
1600.00,0.0689
1599.00,0.0672
1598.00,0.0656
1597.00,0.0641
1596.00,0.0625
1595.00,0.0610
1594.00,0.0596
1593.00,0.0583
1592.00,0.0570
1591.00,0.0558
1590.00,0.0548
1589.00,0.0538
1588.00,0.0528
1587.00,0.0520
1586.00,0.0512
1585.00,0.0505
1584.00,0.0498
1583.00,0.0492
1582.00,0.0487
1581.00,0.0482
1580.00,0.0477
1579.00,0.0472
1578.00,0.0469
1577.00,0.0466
1576.00,0.0465
1575.00,0.0465
1574.00,0.0465
1573.00,0.0465
1572.00,0.0465
1571.00,0.0465
1570.00,0.0467
1569.00,0.0470
1568.00,0.0472
1567.00,0.0475
1566.00,0.0477
1565.00,0.0480
1564.00,0.0482
1563.00,0.0483
1562.00,0.0485
1561.00,0.0488
1560.00,0.0496
1559.00,0.0507
1558.00,0.0518
1557.00,0.0528
1556.00,0.0533
1555.00,0.0537
1554.00,0.0542
1553.00,0.0547
1552.00,0.0552
1551.00,0.0555
1550.00,0.0558
1549.00,0.0561
1548.00,0.0563
1547.00,0.0564
1546.00,0.0563
1545.00,0.0560
1544.00,0.0556
1543.00,0.0551
1542.00,0.0548
1541.00,0.0543
1540.00,0.0536
1539.00,0.0531
1538.00,0.0526
1537.00,0.0522
1536.00,0.0516
1535.00,0.0508
1534.00,0.0499
1533.00,0.0488
1532.00,0.0478
1531.00,0.0470
1530.00,0.0463
1529.00,0.0455
1528.00,0.0445
1527.00,0.0435
1526.00,0.0425
1525.00,0.0417
1524.00,0.0408
1523.00,0.0400
1522.00,0.0391
1521.00,0.0382
1520.00,0.0376
1519.00,0.0370
1518.00,0.0364
1517.00,0.0355
1516.00,0.0344
1515.00,0.0334
1514.00,0.0325
1513.00,0.0315
1512.00,0.0303
1511.00,0.0291
1510.00,0.0278
1509.00,0.0265
1508.00,0.0252
1507.00,0.0239
1506.00,0.0231
1505.00,0.0227
1504.00,0.0222
1503.00,0.0214
1502.00,0.0207
1501.00,0.0199
1500.00,0.0192
1499.00,0.0185
1498.00,0.0178
1497.00,0.0171
1496.00,0.0165
1495.00,0.0160
1494.00,0.0156
1493.00,0.0153
1492.00,0.0149
1491.00,0.0145
1490.00,0.0141
1489.00,0.0136
1488.00,0.0135
1487.00,0.0135
1486.00,0.0135
1485.00,0.0136
1484.00,0.0137
1483.00,0.0138
1482.00,0.0139
1481.00,0.0141
1480.00,0.0144
1479.00,0.0147
1478.00,0.0151
1477.00,0.0155
1476.00,0.0159
1475.00,0.0163
1474.00,0.0169
1473.00,0.0176
1472.00,0.0185
1471.00,0.0192
1470.00,0.0198
1469.00,0.0202
1468.00,0.0205
1467.00,0.0206
1466.00,0.0209
1465.00,0.0212
1464.00,0.0216
1463.00,0.0220
1462.00,0.0224
1461.00,0.0226
1460.00,0.0227
1459.00,0.0228
1458.00,0.0231
1457.00,0.0236
1456.00,0.0243
1455.00,0.0248
1454.00,0.0251
1453.00,0.0252
1452.00,0.0252
1451.00,0.0252
1450.00,0.0253
1449.00,0.0253
1448.00,0.0254
1447.00,0.0254
1446.00,0.0254
1445.00,0.0255
1444.00,0.0255
1443.00,0.0256
1442.00,0.0256
1441.00,0.0257
1440.00,0.0257
1439.00,0.0256
1438.00,0.0256
1437.00,0.0257
1436.00,0.0258
1435.00,0.0260
1434.00,0.0261
1433.00,0.0262
1432.00,0.0263
1431.00,0.0264
1430.00,0.0266
1429.00,0.0268
1428.00,0.0270
1427.00,0.0272
1426.00,0.0274
1425.00,0.0275
1424.00,0.0277
1423.00,0.0278
1422.00,0.0278
1421.00,0.0279
1420.00,0.0280
1419.00,0.0281
1418.00,0.0281
1417.00,0.0282
1416.00,0.0283
1415.00,0.0283
1414.00,0.0282
1413.00,0.0281
1412.00,0.0279
1411.00,0.0277
1410.00,0.0275
1409.00,0.0273
1408.00,0.0271
1407.00,0.0268
1406.00,0.0264
1405.00,0.0260
1404.00,0.0257
1403.00,0.0253
1402.00,0.0250
1401.00,0.0246
1400.00,0.0240
1399.00,0.0233
1398.00,0.0227
1397.00,0.0221
1396.00,0.0217
1395.00,0.0212
1394.00,0.0209
1393.00,0.0208
1392.00,0.0207
1391.00,0.0206
1390.00,0.0205
1389.00,0.0205
1388.00,0.0205
1387.00,0.0207
1386.00,0.0210
1385.00,0.0214
1384.00,0.0219
1383.00,0.0223
1382.00,0.0226
1381.00,0.0229
1380.00,0.0231
1379.00,0.0232
1378.00,0.0232
1377.00,0.0231
1376.00,0.0229
1375.00,0.0226
1374.00,0.0222
1373.00,0.0218
1372.00,0.0215
1371.00,0.0211
1370.00,0.0207
1369.00,0.0202
1368.00,0.0197
1367.00,0.0192
1366.00,0.0186
1365.00,0.0181
1364.00,0.0174
1363.00,0.0169
1362.00,0.0165
1361.00,0.0163
1360.00,0.0162
1359.00,0.0161
1358.00,0.0160
1357.00,0.0158
1356.00,0.0157
1355.00,0.0155
1354.00,0.0153
1353.00,0.0151
1352.00,0.0148
1351.00,0.0145
1350.00,0.0141
1349.00,0.0137
1348.00,0.0132
1347.00,0.0128
1346.00,0.0123
1345.00,0.0119
1344.00,0.0115
1343.00,0.0111
1342.00,0.0106
1341.00,0.0101
1340.00,0.0097
1339.00,0.0093
1338.00,0.0091
1337.00,0.0090
1336.00,0.0089
1335.00,0.0088
1334.00,0.0086
1333.00,0.0084
1332.00,0.0082
1331.00,0.0080
1330.00,0.0079
1329.00,0.0078
1328.00,0.0077
1327.00,0.0077
1326.00,0.0077
1325.00,0.0077
1324.00,0.0077
1323.00,0.0078
1322.00,0.0078
1321.00,0.0077
1320.00,0.0077
1319.00,0.0077
1318.00,0.0076
1317.00,0.0076
1316.00,0.0077
1315.00,0.0077
1314.00,0.0077
1313.00,0.0076
1312.00,0.0076
1311.00,0.0076
1310.00,0.0076
1309.00,0.0076
1308.00,0.0076
1307.00,0.0077
1306.00,0.0077
1305.00,0.0079
1304.00,0.0081
1303.00,0.0084
1302.00,0.0087
1301.00,0.0090
1300.00,0.0094
1299.00,0.0099
1298.00,0.0105
1297.00,0.0111
1296.00,0.0118
1295.00,0.0126
1294.00,0.0135
1293.00,0.0144
1292.00,0.0154
1291.00,0.0165
1290.00,0.0176
1289.00,0.0188
1288.00,0.0201
1287.00,0.0215
1286.00,0.0229
1285.00,0.0245
1284.00,0.0262
1283.00,0.0279
1282.00,0.0298
1281.00,0.0317
1280.00,0.0337
1279.00,0.0358
1278.00,0.0379
1277.00,0.0401
1276.00,0.0423
1275.00,0.0447
1274.00,0.0471
1273.00,0.0495
1272.00,0.0520
1271.00,0.0545
1270.00,0.0569
1269.00,0.0592
1268.00,0.0615
1267.00,0.0636
1266.00,0.0656
1265.00,0.0676
1264.00,0.0694
1263.00,0.0712
1262.00,0.0729
1261.00,0.0745
1260.00,0.0761
1259.00,0.0775
1258.00,0.0789
1257.00,0.0801
1256.00,0.0813
1255.00,0.0824
1254.00,0.0834
1253.00,0.0844
1252.00,0.0852
1251.00,0.0860
1250.00,0.0866
1249.00,0.0872
1248.00,0.0878
1247.00,0.0883
1246.00,0.0888
1245.00,0.0893
1244.00,0.0898
1243.00,0.0904
1242.00,0.0909
1241.00,0.0915
1240.00,0.0922
1239.00,0.0931
1238.00,0.0940
1237.00,0.0949
1236.00,0.0959
1235.00,0.0968
1234.00,0.0977
1233.00,0.0987
1232.00,0.0997
1231.00,0.1006
1230.00,0.1015
1229.00,0.1024
1228.00,0.1032
1227.00,0.1039
1226.00,0.1045
1225.00,0.1050
1224.00,0.1054
1223.00,0.1058
1222.00,0.1060
1221.00,0.1061
1220.00,0.1061
1219.00,0.1058
1218.00,0.1054
1217.00,0.1048
1216.00,0.1041
1215.00,0.1032
1214.00,0.1021
1213.00,0.1009
1212.00,0.0996
1211.00,0.0982
1210.00,0.0967
1209.00,0.0952
1208.00,0.0936
1207.00,0.0920
1206.00,0.0903
1205.00,0.0888
1204.00,0.0873
1203.00,0.0860
1202.00,0.0849
1201.00,0.0842
1200.00,0.0837
1199.00,0.0836
1198.00,0.0837
1197.00,0.0841
1196.00,0.0845
1195.00,0.0849
1194.00,0.0852
1193.00,0.0851
1192.00,0.0846
1191.00,0.0834
1190.00,0.0815
1189.00,0.0790
1188.00,0.0761
1187.00,0.0730
1186.00,0.0698
1185.00,0.0668
1184.00,0.0641
1183.00,0.0617
1182.00,0.0598
1181.00,0.0584
1180.00,0.0574
1179.00,0.0569
1178.00,0.0567
1177.00,0.0568
1176.00,0.0572
1175.00,0.0579
1174.00,0.0588
1173.00,0.0600
1172.00,0.0615
1171.00,0.0632
1170.00,0.0652
1169.00,0.0676
1168.00,0.0703
1167.00,0.0732
1166.00,0.0762
1165.00,0.0793
1164.00,0.0824
1163.00,0.0855
1162.00,0.0885
1161.00,0.0914
1160.00,0.0941
1159.00,0.0965
1158.00,0.0986
1157.00,0.1003
1156.00,0.1016
1155.00,0.1027
1154.00,0.1035
1153.00,0.1040
1152.00,0.1042
1151.00,0.1041
1150.00,0.1037
1149.00,0.1031
1148.00,0.1024
1147.00,0.1014
1146.00,0.1004
1145.00,0.0995
1144.00,0.0985
1143.00,0.0977
1142.00,0.0971
1141.00,0.0967
1140.00,0.0965
1139.00,0.0964
1138.00,0.0965
1137.00,0.0967
1136.00,0.0970
1135.00,0.0976
1134.00,0.0983
1133.00,0.0993
1132.00,0.1007
1131.00,0.1027
1130.00,0.1051
1129.00,0.1081
1128.00,0.1113
1127.00,0.1143
1126.00,0.1166
1125.00,0.1179
1124.00,0.1182
1123.00,0.1176
1122.00,0.1162
1121.00,0.1144
1120.00,0.1125
1119.00,0.1107
1118.00,0.1090
1117.00,0.1075
1116.00,0.1063
1115.00,0.1052
1114.00,0.1044
1113.00,0.1038
1112.00,0.1035
1111.00,0.1033
1110.00,0.1034
1109.00,0.1038
1108.00,0.1045
1107.00,0.1055
1106.00,0.1068
1105.00,0.1085
1104.00,0.1105
1103.00,0.1128
1102.00,0.1153
1101.00,0.1180
1100.00,0.1209
1099.00,0.1238
1098.00,0.1266
1097.00,0.1293
1096.00,0.1317
1095.00,0.1339
1094.00,0.1358
1093.00,0.1376
1092.00,0.1394
1091.00,0.1411
1090.00,0.1428
1089.00,0.1446
1088.00,0.1466
1087.00,0.1487
1086.00,0.1510
1085.00,0.1535
1084.00,0.1562
1083.00,0.1592
1082.00,0.1624
1081.00,0.1659
1080.00,0.1697
1079.00,0.1735
1078.00,0.1775
1077.00,0.1814
1076.00,0.1853
1075.00,0.1892
1074.00,0.1929
1073.00,0.1966
1072.00,0.2002
1071.00,0.2034
1070.00,0.2064
1069.00,0.2090
1068.00,0.2110
1067.00,0.2122
1066.00,0.2126
1065.00,0.2121
1064.00,0.2107
1063.00,0.2084
1062.00,0.2055
1061.00,0.2024
1060.00,0.1992
1059.00,0.1963
1058.00,0.1938
1057.00,0.1921
1056.00,0.1910
1055.00,0.1905
1054.00,0.1905
1053.00,0.1909
1052.00,0.1918
1051.00,0.1931
1050.00,0.1947
1049.00,0.1968
1048.00,0.1991
1047.00,0.2018
1046.00,0.2046
1045.00,0.2077
1044.00,0.2107
1043.00,0.2136
1042.00,0.2159
1041.00,0.2177
1040.00,0.2189
1039.00,0.2195
1038.00,0.2195
1037.00,0.2191
1036.00,0.2184
1035.00,0.2174
1034.00,0.2163
1033.00,0.2152
1032.00,0.2143
1031.00,0.2132
1030.00,0.2119
1029.00,0.2102
1028.00,0.2079
1027.00,0.2049
1026.00,0.2009
1025.00,0.1962
1024.00,0.1908
1023.00,0.1847
1022.00,0.1783
1021.00,0.1716
1020.00,0.1648
1019.00,0.1580
1018.00,0.1515
1017.00,0.1453
1016.00,0.1395
1015.00,0.1342
1014.00,0.1296
1013.00,0.1256
1012.00,0.1224
1011.00,0.1199
1010.00,0.1179
1009.00,0.1165
1008.00,0.1154
1007.00,0.1145
1006.00,0.1135
1005.00,0.1123
1004.00,0.1106
1003.00,0.1082
1002.00,0.1049
1001.00,0.1008
1000.00,0.0960
999.00,0.0907
998.00,0.0855
997.00,0.0806
996.00,0.0763
995.00,0.0726
994.00,0.0695
993.00,0.0670
992.00,0.0649
991.00,0.0630
990.00,0.0613
989.00,0.0597
988.00,0.0581
987.00,0.0563
986.00,0.0543
985.00,0.0524
984.00,0.0505
983.00,0.0489
982.00,0.0476
981.00,0.0467
980.00,0.0460
979.00,0.0455
978.00,0.0452
977.00,0.0451
976.00,0.0451
975.00,0.0452
974.00,0.0453
973.00,0.0454
972.00,0.0455
971.00,0.0453
970.00,0.0449
969.00,0.0438
968.00,0.0421
967.00,0.0395
966.00,0.0363
965.00,0.0326
964.00,0.0286
963.00,0.0247
962.00,0.0210
961.00,0.0176
960.00,0.0147
959.00,0.0123
958.00,0.0103
957.00,0.0089
956.00,0.0079
955.00,0.0072
954.00,0.0068
953.00,0.0065
952.00,0.0066
951.00,0.0068
950.00,0.0074
949.00,0.0081
948.00,0.0092
947.00,0.0104
946.00,0.0120
945.00,0.0141
944.00,0.0166
943.00,0.0196
942.00,0.0232
941.00,0.0273
940.00,0.0319
939.00,0.0371
938.00,0.0428
937.00,0.0486
936.00,0.0545
935.00,0.0602
934.00,0.0656
933.00,0.0704
932.00,0.0746
931.00,0.0781
930.00,0.0809
929.00,0.0831
928.00,0.0846
927.00,0.0854
926.00,0.0855
925.00,0.0850
924.00,0.0841
923.00,0.0828
922.00,0.0812
921.00,0.0792
920.00,0.0770
919.00,0.0745
918.00,0.0718
917.00,0.0689
916.00,0.0658
915.00,0.0624
914.00,0.0589
913.00,0.0552
912.00,0.0516
911.00,0.0480
910.00,0.0446
909.00,0.0416
908.00,0.0388
907.00,0.0363
906.00,0.0342
905.00,0.0325
904.00,0.0310
903.00,0.0299
902.00,0.0290
901.00,0.0283
900.00,0.0278
899.00,0.0274
898.00,0.0272
897.00,0.0271
896.00,0.0271
895.00,0.0272
894.00,0.0274
893.00,0.0276
892.00,0.0277
891.00,0.0277
890.00,0.0275
889.00,0.0271
888.00,0.0263
887.00,0.0250
886.00,0.0232
885.00,0.0211
884.00,0.0186
883.00,0.0159
882.00,0.0133
881.00,0.0109
880.00,0.0090
879.00,0.0076
878.00,0.0068
877.00,0.0065
876.00,0.0066
875.00,0.0070
874.00,0.0075
873.00,0.0080
872.00,0.0083
871.00,0.0084
870.00,0.0084
869.00,0.0083
868.00,0.0083
867.00,0.0083
866.00,0.0085
865.00,0.0090
864.00,0.0096
863.00,0.0107
862.00,0.0121
861.00,0.0140
860.00,0.0161
859.00,0.0185
858.00,0.0212
857.00,0.0242
856.00,0.0275
855.00,0.0310
854.00,0.0346
853.00,0.0382
852.00,0.0418
851.00,0.0452
850.00,0.0481
849.00,0.0506
848.00,0.0525
847.00,0.0535
846.00,0.0538
845.00,0.0532
844.00,0.0517
843.00,0.0494
842.00,0.0464
841.00,0.0430
840.00,0.0394
839.00,0.0357
838.00,0.0321
837.00,0.0287
836.00,0.0256
835.00,0.0226
834.00,0.0200
833.00,0.0178
832.00,0.0158
831.00,0.0141
830.00,0.0126
829.00,0.0113
828.00,0.0102
827.00,0.0093
826.00,0.0086
825.00,0.0080
824.00,0.0077
823.00,0.0075
822.00,0.0073
821.00,0.0072
820.00,0.0071
819.00,0.0070
818.00,0.0070
817.00,0.0070
816.00,0.0071
815.00,0.0074
814.00,0.0078
813.00,0.0083
812.00,0.0088
811.00,0.0095
810.00,0.0102
809.00,0.0110
808.00,0.0118
807.00,0.0125
806.00,0.0133
805.00,0.0139
804.00,0.0144
803.00,0.0147
802.00,0.0149
801.00,0.0149
800.00,0.0148
799.00,0.0145
798.00,0.0140
797.00,0.0135
796.00,0.0129
795.00,0.0122
794.00,0.0114
793.00,0.0106
792.00,0.0098
791.00,0.0092
790.00,0.0088
789.00,0.0083
788.00,0.0079
787.00,0.0076
786.00,0.0073
785.00,0.0071
784.00,0.0070
783.00,0.0071
782.00,0.0073
781.00,0.0076
780.00,0.0081
779.00,0.0087
778.00,0.0095
777.00,0.0103
776.00,0.0111
775.00,0.0118
774.00,0.0122
773.00,0.0124
772.00,0.0124
771.00,0.0122
770.00,0.0118
769.00,0.0112
768.00,0.0104
767.00,0.0095
766.00,0.0088
765.00,0.0082
764.00,0.0077
763.00,0.0074
762.00,0.0073
761.00,0.0074
760.00,0.0075
759.00,0.0078
758.00,0.0082
757.00,0.0087
756.00,0.0094
755.00,0.0102
754.00,0.0112
753.00,0.0125
752.00,0.0140
751.00,0.0158
750.00,0.0177
749.00,0.0198
748.00,0.0218
747.00,0.0238
746.00,0.0257
745.00,0.0273
744.00,0.0286
743.00,0.0297
742.00,0.0306
741.00,0.0315
740.00,0.0323
739.00,0.0329
738.00,0.0335
737.00,0.0339
736.00,0.0342
735.00,0.0343
734.00,0.0341
733.00,0.0337
732.00,0.0333
731.00,0.0329
730.00,0.0326
729.00,0.0324
728.00,0.0322
727.00,0.0319
726.00,0.0316
725.00,0.0313
724.00,0.0311
723.00,0.0308
722.00,0.0304
721.00,0.0297
720.00,0.0290
719.00,0.0284
718.00,0.0278
717.00,0.0275
716.00,0.0274
715.00,0.0275
714.00,0.0279
713.00,0.0286
712.00,0.0296
711.00,0.0309
710.00,0.0324
709.00,0.0341
708.00,0.0359
707.00,0.0378
706.00,0.0395
705.00,0.0409
704.00,0.0420
703.00,0.0428
702.00,0.0433
701.00,0.0435
700.00,0.0434
699.00,0.0428
698.00,0.0417
697.00,0.0404
696.00,0.0387
695.00,0.0369
694.00,0.0351
693.00,0.0331
692.00,0.0311
691.00,0.0290
690.00,0.0270
689.00,0.0250
688.00,0.0231
687.00,0.0215
686.00,0.0200
685.00,0.0187
684.00,0.0175
683.00,0.0164
682.00,0.0155
681.00,0.0148
680.00,0.0143
679.00,0.0139
678.00,0.0136
677.00,0.0134
676.00,0.0133
675.00,0.0133
674.00,0.0135
673.00,0.0138
672.00,0.0140
671.00,0.0141
670.00,0.0140
669.00,0.0138
668.00,0.0140
667.00,0.0144
666.00,0.0147
665.00,0.0147
664.00,0.0148
663.00,0.0154
662.00,0.0166
661.00,0.0186
660.00,0.0210
659.00,0.0236
658.00,0.0257
657.00,0.0267
656.00,0.0265
655.00,0.0250
654.00,0.0226
653.00,0.0199
652.00,0.0174
651.00,0.0153
650.00,0.0138
649.00,0.0129
648.00,0.0127
647.00,0.0133
646.00,0.0145
645.00,0.0159
644.00,0.0168
643.00,0.0169
642.00,0.0159
641.00,0.0143
640.00,0.0126
639.00,0.0110
638.00,0.0097
637.00,0.0086
636.00,0.0078
635.00,0.0073
634.00,0.0070
633.00,0.0069
632.00,0.0069
631.00,0.0071
630.00,0.0074
629.00,0.0080
628.00,0.0088
627.00,0.0096
626.00,0.0104
625.00,0.0113
624.00,0.0124
623.00,0.0136
622.00,0.0149
621.00,0.0164
620.00,0.0182
619.00,0.0203
618.00,0.0225
617.00,0.0248
616.00,0.0272
615.00,0.0293
614.00,0.0311
613.00,0.0326
612.00,0.0342
611.00,0.0360
610.00,0.0381
609.00,0.0406
608.00,0.0435
607.00,0.0466
606.00,0.0496
605.00,0.0522
604.00,0.0543
603.00,0.0559
602.00,0.0569
601.00,0.0577
600.00,0.0582
599.00,0.0586
598.00,0.0586
597.00,0.0585
596.00,0.0582
595.00,0.0577
594.00,0.0569
593.00,0.0561
592.00,0.0551
591.00,0.0542
590.00,0.0532
589.00,0.0523
588.00,0.0515
587.00,0.0508
586.00,0.0505
585.00,0.0505
584.00,0.0509
583.00,0.0515
582.00,0.0520
581.00,0.0524
580.00,0.0527
579.00,0.0526
578.00,0.0524
577.00,0.0520
576.00,0.0516
575.00,0.0509
574.00,0.0501
573.00,0.0493
572.00,0.0486
571.00,0.0477
570.00,0.0465
569.00,0.0450
568.00,0.0436
567.00,0.0423
566.00,0.0412
565.00,0.0404
564.00,0.0395
563.00,0.0384
562.00,0.0372
561.00,0.0364
560.00,0.0360
559.00,0.0357
558.00,0.0354
557.00,0.0347
556.00,0.0340
555.00,0.0332
554.00,0.0324
553.00,0.0317
552.00,0.0312
551.00,0.0307
550.00,0.0304
549.00,0.0303
548.00,0.0306
547.00,0.0311
546.00,0.0318
545.00,0.0325
544.00,0.0332
543.00,0.0338
542.00,0.0340
541.00,0.0340
540.00,0.0339
539.00,0.0337
538.00,0.0334
537.00,0.0331
536.00,0.0330
535.00,0.0328
534.00,0.0324
533.00,0.0318
532.00,0.0309
531.00,0.0300
530.00,0.0292
529.00,0.0286
528.00,0.0282
527.00,0.0282
526.00,0.0284
525.00,0.0290
524.00,0.0296
523.00,0.0299
522.00,0.0299
521.00,0.0297
520.00,0.0296
519.00,0.0294
518.00,0.0292
517.00,0.0291
516.00,0.0288
515.00,0.0281
514.00,0.0268
513.00,0.0252
512.00,0.0238
511.00,0.0226
510.00,0.0217
509.00,0.0207
508.00,0.0195
507.00,0.0182
506.00,0.0171
505.00,0.0163
504.00,0.0156
503.00,0.0144
502.00,0.0129
501.00,0.0116
500.00,0.0110
499.00,0.0107
498.00,0.0103
497.00,0.0099
496.00,0.0092
495.00,0.0084
494.00,0.0075
493.00,0.0069
492.00,0.0068
491.00,0.0072
490.00,0.0078
489.00,0.0081
488.00,0.0081
487.00,0.0076
486.00,0.0071
485.00,0.0072
484.00,0.0079
483.00,0.0088
482.00,0.0095
481.00,0.0101
480.00,0.0108
479.00,0.0114
478.00,0.0116
477.00,0.0116
476.00,0.0119
475.00,0.0124
474.00,0.0128
473.00,0.0131
472.00,0.0131
471.00,0.0129
470.00,0.0123
469.00,0.0121
468.00,0.0124
467.00,0.0129
466.00,0.0128
465.00,0.0123
464.00,0.0121
463.00,0.0122
462.00,0.0122
461.00,0.0115
460.00,0.0102
459.00,0.0082
458.00,0.0082
457.00,0.0075
456.00,0.0068
455.00,0.0062
454.00,0.0056
453.00,0.0053
452.00,0.0049
451.00,0.0037
450.00,0.0020
