Created as New Dataset,Sample 001 By Administrator Date Monday, June 09 2025
cm-1,A
4000.00,0.0061
3999.00,0.0060
3998.00,0.0060
3997.00,0.0060
3996.00,0.0061
3995.00,0.0061
3994.00,0.0061
3993.00,0.0060
3992.00,0.0060
3991.00,0.0060
3990.00,0.0060
3989.00,0.0060
3988.00,0.0061
3987.00,0.0061
3986.00,0.0061
3985.00,0.0061
3984.00,0.0061
3983.00,0.0061
3982.00,0.0060
3981.00,0.0060
3980.00,0.0060
3979.00,0.0061
3978.00,0.0061
3977.00,0.0061
3976.00,0.0061
3975.00,0.0061
3974.00,0.0062
3973.00,0.0062
3972.00,0.0062
3971.00,0.0062
3970.00,0.0062
3969.00,0.0062
3968.00,0.0062
3967.00,0.0062
3966.00,0.0062
3965.00,0.0061
3964.00,0.0061
3963.00,0.0061
3962.00,0.0061
3961.00,0.0061
3960.00,0.0061
3959.00,0.0061
3958.00,0.0061
3957.00,0.0061
3956.00,0.0061
3955.00,0.0061
3954.00,0.0061
3953.00,0.0061
3952.00,0.0061
3951.00,0.0062
3950.00,0.0062
3949.00,0.0062
3948.00,0.0062
3947.00,0.0062
3946.00,0.0062
3945.00,0.0063
3944.00,0.0063
3943.00,0.0062
3942.00,0.0062
3941.00,0.0062
3940.00,0.0062
3939.00,0.0062
3938.00,0.0062
3937.00,0.0063
3936.00,0.0063
3935.00,0.0063
3934.00,0.0063
3933.00,0.0063
3932.00,0.0062
3931.00,0.0062
3930.00,0.0062
3929.00,0.0062
3928.00,0.0062
3927.00,0.0062
3926.00,0.0062
3925.00,0.0062
3924.00,0.0062
3923.00,0.0063
3922.00,0.0063
3921.00,0.0063
3920.00,0.0063
3919.00,0.0063
3918.00,0.0062
3917.00,0.0062
3916.00,0.0062
3915.00,0.0062
3914.00,0.0061
3913.00,0.0061
3912.00,0.0061
3911.00,0.0060
3910.00,0.0060
3909.00,0.0061
3908.00,0.0061
3907.00,0.0062
3906.00,0.0063
3905.00,0.0063
3904.00,0.0063
3903.00,0.0063
3902.00,0.0063
3901.00,0.0063
3900.00,0.0062
3899.00,0.0062
3898.00,0.0061
3897.00,0.0061
3896.00,0.0062
3895.00,0.0062
3894.00,0.0062
3893.00,0.0062
3892.00,0.0061
3891.00,0.0061
3890.00,0.0060
3889.00,0.0060
3888.00,0.0061
3887.00,0.0061
3886.00,0.0062
3885.00,0.0063
3884.00,0.0063
3883.00,0.0063
3882.00,0.0062
3881.00,0.0062
3880.00,0.0061
3879.00,0.0061
3878.00,0.0061
3877.00,0.0061
3876.00,0.0062
3875.00,0.0062
3874.00,0.0062
3873.00,0.0062
3872.00,0.0062
3871.00,0.0062
3870.00,0.0062
3869.00,0.0062
3868.00,0.0062
3867.00,0.0063
3866.00,0.0063
3865.00,0.0063
3864.00,0.0063
3863.00,0.0061
3862.00,0.0061
3861.00,0.0060
3860.00,0.0061
3859.00,0.0061
3858.00,0.0061
3857.00,0.0061
3856.00,0.0061
3855.00,0.0061
3854.00,0.0062
3853.00,0.0062
3852.00,0.0061
3851.00,0.0060
3850.00,0.0060
3849.00,0.0060
3848.00,0.0060
3847.00,0.0060
3846.00,0.0061
3845.00,0.0061
3844.00,0.0061
3843.00,0.0062
3842.00,0.0063
3841.00,0.0063
3840.00,0.0064
3839.00,0.0064
3838.00,0.0063
3837.00,0.0063
3836.00,0.0062
3835.00,0.0062
3834.00,0.0062
3833.00,0.0063
3832.00,0.0063
3831.00,0.0062
3830.00,0.0062
3829.00,0.0061
3828.00,0.0061
3827.00,0.0061
3826.00,0.0061
3825.00,0.0062
3824.00,0.0063
3823.00,0.0063
3822.00,0.0064
3821.00,0.0063
3820.00,0.0062
3819.00,0.0061
3818.00,0.0061
3817.00,0.0061
3816.00,0.0061
3815.00,0.0061
3814.00,0.0060
3813.00,0.0060
3812.00,0.0060
3811.00,0.0060
3810.00,0.0060
3809.00,0.0060
3808.00,0.0061
3807.00,0.0062
3806.00,0.0063
3805.00,0.0063
3804.00,0.0063
3803.00,0.0063
3802.00,0.0063
3801.00,0.0063
3800.00,0.0062
3799.00,0.0062
3798.00,0.0062
3797.00,0.0062
3796.00,0.0062
3795.00,0.0062
3794.00,0.0062
3793.00,0.0061
3792.00,0.0061
3791.00,0.0061
3790.00,0.0061
3789.00,0.0061
3788.00,0.0061
3787.00,0.0062
3786.00,0.0062
3785.00,0.0063
3784.00,0.0063
3783.00,0.0062
3782.00,0.0062
3781.00,0.0062
3780.00,0.0062
3779.00,0.0062
3778.00,0.0062
3777.00,0.0062
3776.00,0.0063
3775.00,0.0063
3774.00,0.0063
3773.00,0.0063
3772.00,0.0063
3771.00,0.0063
3770.00,0.0063
3769.00,0.0063
3768.00,0.0063
3767.00,0.0063
3766.00,0.0064
3765.00,0.0065
3764.00,0.0065
3763.00,0.0065
3762.00,0.0066
3761.00,0.0066
3760.00,0.0066
3759.00,0.0066
3758.00,0.0066
3757.00,0.0066
3756.00,0.0066
3755.00,0.0067
3754.00,0.0067
3753.00,0.0068
3752.00,0.0069
3751.00,0.0069
3750.00,0.0070
3749.00,0.0071
3748.00,0.0071
3747.00,0.0070
3746.00,0.0070
3745.00,0.0071
3744.00,0.0071
3743.00,0.0071
3742.00,0.0071
3741.00,0.0071
3740.00,0.0072
3739.00,0.0072
3738.00,0.0072
3737.00,0.0073
3736.00,0.0072
3735.00,0.0071
3734.00,0.0070
3733.00,0.0070
3732.00,0.0070
3731.00,0.0070
3730.00,0.0070
3729.00,0.0070
3728.00,0.0071
3727.00,0.0071
3726.00,0.0071
3725.00,0.0071
3724.00,0.0071
3723.00,0.0071
3722.00,0.0071
3721.00,0.0071
3720.00,0.0071
3719.00,0.0072
3718.00,0.0072
3717.00,0.0073
3716.00,0.0074
3715.00,0.0075
3714.00,0.0075
3713.00,0.0076
3712.00,0.0076
3711.00,0.0076
3710.00,0.0076
3709.00,0.0077
3708.00,0.0078
3707.00,0.0078
3706.00,0.0079
3705.00,0.0079
3704.00,0.0080
3703.00,0.0080
3702.00,0.0081
3701.00,0.0081
3700.00,0.0082
3699.00,0.0083
3698.00,0.0083
3697.00,0.0084
3696.00,0.0085
3695.00,0.0087
3694.00,0.0088
3693.00,0.0090
3692.00,0.0091
3691.00,0.0093
3690.00,0.0094
3689.00,0.0095
3688.00,0.0097
3687.00,0.0099
3686.00,0.0100
3685.00,0.0101
3684.00,0.0102
3683.00,0.0104
3682.00,0.0105
3681.00,0.0107
3680.00,0.0110
3679.00,0.0112
3678.00,0.0114
3677.00,0.0117
3676.00,0.0120
3675.00,0.0122
3674.00,0.0125
3673.00,0.0127
3672.00,0.0129
3671.00,0.0132
3670.00,0.0135
3669.00,0.0137
3668.00,0.0140
3667.00,0.0143
3666.00,0.0145
3665.00,0.0148
3664.00,0.0150
3663.00,0.0153
3662.00,0.0156
3661.00,0.0160
3660.00,0.0164
3659.00,0.0168
3658.00,0.0172
3657.00,0.0177
3656.00,0.0181
3655.00,0.0186
3654.00,0.0190
3653.00,0.0194
3652.00,0.0198
3651.00,0.0203
3650.00,0.0208
3649.00,0.0215
3648.00,0.0221
3647.00,0.0227
3646.00,0.0233
3645.00,0.0238
3644.00,0.0242
3643.00,0.0247
3642.00,0.0251
3641.00,0.0255
3640.00,0.0260
3639.00,0.0264
3638.00,0.0270
3637.00,0.0275
3636.00,0.0280
3635.00,0.0286
3634.00,0.0292
3633.00,0.0297
3632.00,0.0302
3631.00,0.0308
3630.00,0.0316
3629.00,0.0324
3628.00,0.0333
3627.00,0.0341
3626.00,0.0347
3625.00,0.0353
3624.00,0.0358
3623.00,0.0363
3622.00,0.0368
3621.00,0.0374
3620.00,0.0381
3619.00,0.0389
3618.00,0.0397
3617.00,0.0404
3616.00,0.0411
3615.00,0.0417
3614.00,0.0424
3613.00,0.0430
3612.00,0.0436
3611.00,0.0442
3610.00,0.0448
3609.00,0.0455
3608.00,0.0461
3607.00,0.0467
3606.00,0.0474
3605.00,0.0481
3604.00,0.0487
3603.00,0.0494
3602.00,0.0500
3601.00,0.0506
3600.00,0.0512
3599.00,0.0518
3598.00,0.0525
3597.00,0.0532
3596.00,0.0539
3595.00,0.0546
3594.00,0.0553
3593.00,0.0560
3592.00,0.0567
3591.00,0.0572
3590.00,0.0578
3589.00,0.0584
3588.00,0.0591
3587.00,0.0599
3586.00,0.0607
3585.00,0.0615
3584.00,0.0621
3583.00,0.0627
3582.00,0.0633
3581.00,0.0639
3580.00,0.0645
3579.00,0.0651
3578.00,0.0657
3577.00,0.0664
3576.00,0.0671
3575.00,0.0678
3574.00,0.0685
3573.00,0.0692
3572.00,0.0698
3571.00,0.0704
3570.00,0.0709
3569.00,0.0715
3568.00,0.0721
3567.00,0.0730
3566.00,0.0739
3565.00,0.0748
3564.00,0.0756
3563.00,0.0763
3562.00,0.0769
3561.00,0.0774
3560.00,0.0780
3559.00,0.0786
3558.00,0.0792
3557.00,0.0798
3556.00,0.0804
3555.00,0.0810
3554.00,0.0816
3553.00,0.0823
3552.00,0.0830
3551.00,0.0838
3550.00,0.0845
3549.00,0.0852
3548.00,0.0858
3547.00,0.0865
3546.00,0.0872
3545.00,0.0879
3544.00,0.0887
3543.00,0.0894
3542.00,0.0900
3541.00,0.0906
3540.00,0.0911
3539.00,0.0917
3538.00,0.0923
3537.00,0.0929
3536.00,0.0936
3535.00,0.0943
3534.00,0.0949
3533.00,0.0955
3532.00,0.0961
3531.00,0.0967
3530.00,0.0973
3529.00,0.0979
3528.00,0.0986
3527.00,0.0994
3526.00,0.1001
3525.00,0.1009
3524.00,0.1016
3523.00,0.1022
3522.00,0.1028
3521.00,0.1034
3520.00,0.1040
3519.00,0.1046
3518.00,0.1052
3517.00,0.1059
3516.00,0.1065
3515.00,0.1072
3514.00,0.1078
3513.00,0.1083
3512.00,0.1088
3511.00,0.1094
3510.00,0.1099
3509.00,0.1106
3508.00,0.1112
3507.00,0.1119
3506.00,0.1126
3505.00,0.1133
3504.00,0.1139
3503.00,0.1145
3502.00,0.1152
3501.00,0.1159
3500.00,0.1166
3499.00,0.1172
3498.00,0.1178
3497.00,0.1184
3496.00,0.1189
3495.00,0.1195
3494.00,0.1202
3493.00,0.1208
3492.00,0.1214
3491.00,0.1220
3490.00,0.1226
3489.00,0.1232
3488.00,0.1239
3487.00,0.1245
3486.00,0.1251
3485.00,0.1256
3484.00,0.1262
3483.00,0.1268
3482.00,0.1275
3481.00,0.1282
3480.00,0.1289
3479.00,0.1295
3478.00,0.1301
3477.00,0.1306
3476.00,0.1311
3475.00,0.1316
3474.00,0.1323
3473.00,0.1329
3472.00,0.1336
3471.00,0.1343
3470.00,0.1349
3469.00,0.1354
3468.00,0.1360
3467.00,0.1365
3466.00,0.1370
3465.00,0.1375
3464.00,0.1381
3463.00,0.1387
3462.00,0.1393
3461.00,0.1400
3460.00,0.1406
3459.00,0.1411
3458.00,0.1417
3457.00,0.1422
3456.00,0.1427
3455.00,0.1432
3454.00,0.1438
3453.00,0.1444
3452.00,0.1449
3451.00,0.1455
3450.00,0.1459
3449.00,0.1464
3448.00,0.1470
3447.00,0.1476
3446.00,0.1482
3445.00,0.1489
3444.00,0.1494
3443.00,0.1500
3442.00,0.1505
3441.00,0.1510
3440.00,0.1516
3439.00,0.1522
3438.00,0.1528
3437.00,0.1534
3436.00,0.1539
3435.00,0.1543
3434.00,0.1548
3433.00,0.1553
3432.00,0.1558
3431.00,0.1563
3430.00,0.1567
3429.00,0.1572
3428.00,0.1576
3427.00,0.1581
3426.00,0.1585
3425.00,0.1589
3424.00,0.1594
3423.00,0.1598
3422.00,0.1602
3421.00,0.1607
3420.00,0.1612
3419.00,0.1618
3418.00,0.1623
3417.00,0.1628
3416.00,0.1633
3415.00,0.1637
3414.00,0.1641
3413.00,0.1645
3412.00,0.1649
3411.00,0.1654
3410.00,0.1658
3409.00,0.1662
3408.00,0.1665
3407.00,0.1668
3406.00,0.1671
3405.00,0.1675
3404.00,0.1680
3403.00,0.1685
3402.00,0.1689
3401.00,0.1693
3400.00,0.1696
3399.00,0.1698
3398.00,0.1701
3397.00,0.1704
3396.00,0.1708
3395.00,0.1711
3394.00,0.1714
3393.00,0.1718
3392.00,0.1720
3391.00,0.1723
3390.00,0.1725
3389.00,0.1727
3388.00,0.1728
3387.00,0.1730
3386.00,0.1733
3385.00,0.1735
3384.00,0.1737
3383.00,0.1740
3382.00,0.1742
3381.00,0.1744
3380.00,0.1747
3379.00,0.1749
3378.00,0.1750
3377.00,0.1752
3376.00,0.1754
3375.00,0.1756
3374.00,0.1758
3373.00,0.1760
3372.00,0.1762
3371.00,0.1764
3370.00,0.1766
3369.00,0.1767
3368.00,0.1768
3367.00,0.1768
3366.00,0.1769
3365.00,0.1770
3364.00,0.1772
3363.00,0.1773
3362.00,0.1774
3361.00,0.1775
3360.00,0.1775
3359.00,0.1775
3358.00,0.1775
3357.00,0.1776
3356.00,0.1777
3355.00,0.1778
3354.00,0.1778
3353.00,0.1779
3352.00,0.1780
3351.00,0.1780
3350.00,0.1779
3349.00,0.1779
3348.00,0.1779
3347.00,0.1779
3346.00,0.1780
3345.00,0.1780
3344.00,0.1780
3343.00,0.1780
3342.00,0.1780
3341.00,0.1779
3340.00,0.1778
3339.00,0.1778
3338.00,0.1777
3337.00,0.1777
3336.00,0.1776
3335.00,0.1777
3334.00,0.1777
3333.00,0.1776
3332.00,0.1776
3331.00,0.1774
3330.00,0.1773
3329.00,0.1772
3328.00,0.1772
3327.00,0.1771
3326.00,0.1771
3325.00,0.1770
3324.00,0.1769
3323.00,0.1768
3322.00,0.1768
3321.00,0.1768
3320.00,0.1767
3319.00,0.1767
3318.00,0.1766
3317.00,0.1765
3316.00,0.1764
3315.00,0.1764
3314.00,0.1763
3313.00,0.1762
3312.00,0.1761
3311.00,0.1760
3310.00,0.1759
3309.00,0.1758
3308.00,0.1758
3307.00,0.1758
3306.00,0.1758
3305.00,0.1757
3304.00,0.1756
3303.00,0.1755
3302.00,0.1754
3301.00,0.1754
3300.00,0.1753
3299.00,0.1752
3298.00,0.1752
3297.00,0.1751
3296.00,0.1750
3295.00,0.1749
3294.00,0.1747
3293.00,0.1746
3292.00,0.1746
3291.00,0.1745
3290.00,0.1745
3289.00,0.1745
3288.00,0.1744
3287.00,0.1743
3286.00,0.1741
3285.00,0.1739
3284.00,0.1737
3283.00,0.1735
3282.00,0.1733
3281.00,0.1732
3280.00,0.1730
3279.00,0.1728
3278.00,0.1726
3277.00,0.1723
3276.00,0.1721
3275.00,0.1718
3274.00,0.1715
3273.00,0.1713
3272.00,0.1711
3271.00,0.1708
3270.00,0.1706
3269.00,0.1704
3268.00,0.1701
3267.00,0.1698
3266.00,0.1695
3265.00,0.1691
3264.00,0.1688
3263.00,0.1684
3262.00,0.1680
3261.00,0.1676
3260.00,0.1672
3259.00,0.1669
3258.00,0.1665
3257.00,0.1661
3256.00,0.1657
3255.00,0.1653
3254.00,0.1650
3253.00,0.1646
3252.00,0.1641
3251.00,0.1637
3250.00,0.1632
3249.00,0.1628
3248.00,0.1624
3247.00,0.1619
3246.00,0.1615
3245.00,0.1610
3244.00,0.1607
3243.00,0.1603
3242.00,0.1599
3241.00,0.1595
3240.00,0.1590
3239.00,0.1586
3238.00,0.1581
3237.00,0.1576
3236.00,0.1571
3235.00,0.1566
3234.00,0.1562
3233.00,0.1557
3232.00,0.1553
3231.00,0.1549
3230.00,0.1544
3229.00,0.1540
3228.00,0.1535
3227.00,0.1530
3226.00,0.1525
3225.00,0.1519
3224.00,0.1514
3223.00,0.1509
3222.00,0.1504
3221.00,0.1499
3220.00,0.1494
3219.00,0.1489
3218.00,0.1484
3217.00,0.1479
3216.00,0.1474
3215.00,0.1469
3214.00,0.1463
3213.00,0.1458
3212.00,0.1453
3211.00,0.1448
3210.00,0.1442
3209.00,0.1436
3208.00,0.1430
3207.00,0.1424
3206.00,0.1418
3205.00,0.1412
3204.00,0.1407
3203.00,0.1401
3202.00,0.1395
3201.00,0.1389
3200.00,0.1383
3199.00,0.1377
3198.00,0.1371
3197.00,0.1366
3196.00,0.1360
3195.00,0.1354
3194.00,0.1348
3193.00,0.1341
3192.00,0.1334
3191.00,0.1328
3190.00,0.1321
3189.00,0.1315
3188.00,0.1308
3187.00,0.1302
3186.00,0.1296
3185.00,0.1290
3184.00,0.1284
3183.00,0.1278
3182.00,0.1271
3181.00,0.1265
3180.00,0.1258
3179.00,0.1251
3178.00,0.1245
3177.00,0.1238
3176.00,0.1231
3175.00,0.1225
3174.00,0.1218
3173.00,0.1211
3172.00,0.1204
3171.00,0.1198
3170.00,0.1192
3169.00,0.1185
3168.00,0.1178
3167.00,0.1172
3166.00,0.1165
3165.00,0.1158
3164.00,0.1152
3163.00,0.1145
3162.00,0.1139
3161.00,0.1133
3160.00,0.1126
3159.00,0.1119
3158.00,0.1112
3157.00,0.1105
3156.00,0.1099
3155.00,0.1092
3154.00,0.1085
3153.00,0.1079
3152.00,0.1072
3151.00,0.1066
3150.00,0.1060
3149.00,0.1054
3148.00,0.1048
3147.00,0.1042
3146.00,0.1036
3145.00,0.1029
3144.00,0.1024
3143.00,0.1018
3142.00,0.1012
3141.00,0.1007
3140.00,0.1001
3139.00,0.0995
3138.00,0.0989
3137.00,0.0983
3136.00,0.0977
3135.00,0.0971
3134.00,0.0965
3133.00,0.0959
3132.00,0.0953
3131.00,0.0948
3130.00,0.0942
3129.00,0.0937
3128.00,0.0931
3127.00,0.0926
3126.00,0.0921
3125.00,0.0916
3124.00,0.0911
3123.00,0.0906
3122.00,0.0901
3121.00,0.0896
3120.00,0.0891
3119.00,0.0886
3118.00,0.0881
3117.00,0.0876
3116.00,0.0871
3115.00,0.0867
3114.00,0.0862
3113.00,0.0858
3112.00,0.0854
3111.00,0.0849
3110.00,0.0845
3109.00,0.0841
3108.00,0.0837
3107.00,0.0833
3106.00,0.0829
3105.00,0.0824
3104.00,0.0820
3103.00,0.0817
3102.00,0.0813
3101.00,0.0809
3100.00,0.0806
3099.00,0.0802
3098.00,0.0799
3097.00,0.0795
3096.00,0.0792
3095.00,0.0788
3094.00,0.0785
3093.00,0.0782
3092.00,0.0778
3091.00,0.0775
3090.00,0.0771
3089.00,0.0768
3088.00,0.0764
3087.00,0.0761
3086.00,0.0757
3085.00,0.0754
3084.00,0.0750
3083.00,0.0747
3082.00,0.0743
3081.00,0.0740
3080.00,0.0736
3079.00,0.0734
3078.00,0.0731
3077.00,0.0729
3076.00,0.0726
3075.00,0.0722
3074.00,0.0719
3073.00,0.0716
3072.00,0.0712
3071.00,0.0709
3070.00,0.0705
3069.00,0.0701
3068.00,0.0698
3067.00,0.0694
3066.00,0.0691
3065.00,0.0688
3064.00,0.0684
3063.00,0.0681
3062.00,0.0677
3061.00,0.0673
3060.00,0.0670
3059.00,0.0666
3058.00,0.0662
3057.00,0.0659
3056.00,0.0655
3055.00,0.0651
3054.00,0.0647
3053.00,0.0643
3052.00,0.0639
3051.00,0.0636
3050.00,0.0632
3049.00,0.0629
3048.00,0.0625
3047.00,0.0621
3046.00,0.0617
3045.00,0.0613
3044.00,0.0609
3043.00,0.0605
3042.00,0.0601
3041.00,0.0598
3040.00,0.0594
3039.00,0.0591
3038.00,0.0587
3037.00,0.0584
3036.00,0.0581
3035.00,0.0578
3034.00,0.0575
3033.00,0.0572
3032.00,0.0569
3031.00,0.0565
3030.00,0.0562
3029.00,0.0559
3028.00,0.0555
3027.00,0.0552
3026.00,0.0549
3025.00,0.0546
3024.00,0.0543
3023.00,0.0540
3022.00,0.0537
3021.00,0.0535
3020.00,0.0532
3019.00,0.0530
3018.00,0.0527
3017.00,0.0525
3016.00,0.0522
3015.00,0.0520
3014.00,0.0518
3013.00,0.0515
3012.00,0.0513
3011.00,0.0511
3010.00,0.0509
3009.00,0.0507
3008.00,0.0506
3007.00,0.0503
3006.00,0.0501
3005.00,0.0499
3004.00,0.0498
3003.00,0.0496
3002.00,0.0495
3001.00,0.0494
3000.00,0.0493
2999.00,0.0492
2998.00,0.0491
2997.00,0.0491
2996.00,0.0490
2995.00,0.0490
2994.00,0.0490
2993.00,0.0490
2992.00,0.0490
2991.00,0.0490
2990.00,0.0491
2989.00,0.0492
2988.00,0.0492
2987.00,0.0493
2986.00,0.0494
2985.00,0.0495
2984.00,0.0497
2983.00,0.0498
2982.00,0.0499
2981.00,0.0501
2980.00,0.0503
2979.00,0.0505
2978.00,0.0507
2977.00,0.0508
2976.00,0.0511
2975.00,0.0513
2974.00,0.0516
2973.00,0.0519
2972.00,0.0522
2971.00,0.0524
2970.00,0.0527
2969.00,0.0529
2968.00,0.0531
2967.00,0.0534
2966.00,0.0536
2965.00,0.0538
2964.00,0.0539
2963.00,0.0541
2962.00,0.0542
2961.00,0.0543
2960.00,0.0543
2959.00,0.0544
2958.00,0.0543
2957.00,0.0543
2956.00,0.0542
2955.00,0.0542
2954.00,0.0541
2953.00,0.0540
2952.00,0.0538
2951.00,0.0537
2950.00,0.0536
2949.00,0.0535
2948.00,0.0535
2947.00,0.0535
2946.00,0.0536
2945.00,0.0536
2944.00,0.0537
2943.00,0.0538
2942.00,0.0539
2941.00,0.0540
2940.00,0.0541
2939.00,0.0542
2938.00,0.0543
2937.00,0.0545
2936.00,0.0546
2935.00,0.0547
2934.00,0.0548
2933.00,0.0548
2932.00,0.0549
2931.00,0.0549
2930.00,0.0550
2929.00,0.0550
2928.00,0.0550
2927.00,0.0550
2926.00,0.0550
2925.00,0.0550
2924.00,0.0549
2923.00,0.0548
2922.00,0.0546
2921.00,0.0543
2920.00,0.0539
2919.00,0.0535
2918.00,0.0531
2917.00,0.0526
2916.00,0.0520
2915.00,0.0514
2914.00,0.0509
2913.00,0.0503
2912.00,0.0498
2911.00,0.0493
2910.00,0.0488
2909.00,0.0484
2908.00,0.0480
2907.00,0.0477
2906.00,0.0474
2905.00,0.0471
2904.00,0.0468
2903.00,0.0466
2902.00,0.0463
2901.00,0.0460
2900.00,0.0457
2899.00,0.0454
2898.00,0.0451
2897.00,0.0448
2896.00,0.0445
2895.00,0.0443
2894.00,0.0440
2893.00,0.0437
2892.00,0.0434
2891.00,0.0432
2890.00,0.0429
2889.00,0.0427
2888.00,0.0424
2887.00,0.0422
2886.00,0.0419
2885.00,0.0417
2884.00,0.0415
2883.00,0.0413
2882.00,0.0411
2881.00,0.0410
2880.00,0.0408
2879.00,0.0406
2878.00,0.0404
2877.00,0.0403
2876.00,0.0401
2875.00,0.0399
2874.00,0.0397
2873.00,0.0395
2872.00,0.0392
2871.00,0.0389
2870.00,0.0386
2869.00,0.0383
2868.00,0.0380
2867.00,0.0377
2866.00,0.0375
2865.00,0.0372
2864.00,0.0370
2863.00,0.0369
2862.00,0.0367
2861.00,0.0366
2860.00,0.0366
2859.00,0.0365
2858.00,0.0365
2857.00,0.0365
2856.00,0.0365
2855.00,0.0365
2854.00,0.0364
2853.00,0.0364
2852.00,0.0362
2851.00,0.0360
2850.00,0.0356
2849.00,0.0352
2848.00,0.0347
2847.00,0.0342
2846.00,0.0336
2845.00,0.0330
2844.00,0.0324
2843.00,0.0320
2842.00,0.0315
2841.00,0.0311
2840.00,0.0308
2839.00,0.0305
2838.00,0.0302
2837.00,0.0300
2836.00,0.0298
2835.00,0.0296
2834.00,0.0295
2833.00,0.0293
2832.00,0.0290
2831.00,0.0288
2830.00,0.0286
2829.00,0.0285
2828.00,0.0283
2827.00,0.0282
2826.00,0.0280
2825.00,0.0279
2824.00,0.0278
2823.00,0.0276
2822.00,0.0274
2821.00,0.0272
2820.00,0.0271
2819.00,0.0269
2818.00,0.0268
2817.00,0.0267
2816.00,0.0266
2815.00,0.0265
2814.00,0.0264
2813.00,0.0263
2812.00,0.0261
2811.00,0.0260
2810.00,0.0259
2809.00,0.0257
2808.00,0.0256
2807.00,0.0255
2806.00,0.0254
2805.00,0.0253
2804.00,0.0252
2803.00,0.0251
2802.00,0.0250
2801.00,0.0249
2800.00,0.0247
2799.00,0.0246
2798.00,0.0245
2797.00,0.0244
2796.00,0.0243
2795.00,0.0242
2794.00,0.0241
2793.00,0.0239
2792.00,0.0238
2791.00,0.0237
2790.00,0.0236
2789.00,0.0235
2788.00,0.0234
2787.00,0.0234
2786.00,0.0233
2785.00,0.0233
2784.00,0.0232
2783.00,0.0231
2782.00,0.0230
2781.00,0.0228
2780.00,0.0227
2779.00,0.0227
2778.00,0.0226
2777.00,0.0225
2776.00,0.0224
2775.00,0.0224
2774.00,0.0223
2773.00,0.0222
2772.00,0.0221
2771.00,0.0220
2770.00,0.0220
2769.00,0.0219
2768.00,0.0218
2767.00,0.0218
2766.00,0.0217
2765.00,0.0216
2764.00,0.0215
2763.00,0.0214
2762.00,0.0214
2761.00,0.0213
2760.00,0.0212
2759.00,0.0212
2758.00,0.0211
2757.00,0.0211
2756.00,0.0210
2755.00,0.0209
2754.00,0.0209
2753.00,0.0208
2752.00,0.0207
2751.00,0.0206
2750.00,0.0206
2749.00,0.0205
2748.00,0.0205
2747.00,0.0205
2746.00,0.0204
2745.00,0.0204
2744.00,0.0203
2743.00,0.0202
2742.00,0.0201
2741.00,0.0201
2740.00,0.0200
2739.00,0.0200
2738.00,0.0199
2737.00,0.0199
2736.00,0.0199
2735.00,0.0198
2734.00,0.0197
2733.00,0.0197
2732.00,0.0196
2731.00,0.0196
2730.00,0.0195
2729.00,0.0194
2728.00,0.0194
2727.00,0.0193
2726.00,0.0192
2725.00,0.0192
2724.00,0.0191
2723.00,0.0191
2722.00,0.0190
2721.00,0.0190
2720.00,0.0189
2719.00,0.0189
2718.00,0.0188
2717.00,0.0188
2716.00,0.0187
2715.00,0.0187
2714.00,0.0186
2713.00,0.0185
2712.00,0.0184
2711.00,0.0184
2710.00,0.0184
2709.00,0.0183
2708.00,0.0183
2707.00,0.0183
2706.00,0.0182
2705.00,0.0181
2704.00,0.0181
2703.00,0.0180
2702.00,0.0180
2701.00,0.0179
2700.00,0.0179
2699.00,0.0178
2698.00,0.0178
2697.00,0.0177
2696.00,0.0177
2695.00,0.0176
2694.00,0.0176
2693.00,0.0175
2692.00,0.0175
2691.00,0.0175
2690.00,0.0174
2689.00,0.0174
2688.00,0.0174
2687.00,0.0174
2686.00,0.0174
2685.00,0.0173
2684.00,0.0173
2683.00,0.0173
2682.00,0.0172
2681.00,0.0171
2680.00,0.0171
2679.00,0.0170
2678.00,0.0170
2677.00,0.0169
2676.00,0.0169
2675.00,0.0169
2674.00,0.0169
2673.00,0.0169
2672.00,0.0168
2671.00,0.0168
2670.00,0.0168
2669.00,0.0167
2668.00,0.0167
2667.00,0.0166
2666.00,0.0167
2665.00,0.0167
2664.00,0.0167
2663.00,0.0167
2662.00,0.0167
2661.00,0.0167
2660.00,0.0166
2659.00,0.0166
2658.00,0.0166
2657.00,0.0166
2656.00,0.0166
2655.00,0.0166
2654.00,0.0165
2653.00,0.0165
2652.00,0.0164
2651.00,0.0164
2650.00,0.0163
2649.00,0.0163
2648.00,0.0163
2647.00,0.0162
2646.00,0.0161
2645.00,0.0161
2644.00,0.0160
2643.00,0.0160
2642.00,0.0159
2641.00,0.0158
2640.00,0.0158
2639.00,0.0157
2638.00,0.0156
2637.00,0.0155
2636.00,0.0155
2635.00,0.0154
2634.00,0.0154
2633.00,0.0154
2632.00,0.0154
2631.00,0.0154
2630.00,0.0153
2629.00,0.0152
2628.00,0.0152
2627.00,0.0151
2626.00,0.0150
2625.00,0.0150
2624.00,0.0149
2623.00,0.0149
2622.00,0.0149
2621.00,0.0148
2620.00,0.0148
2619.00,0.0147
2618.00,0.0146
2617.00,0.0146
2616.00,0.0145
2615.00,0.0145
2614.00,0.0145
2613.00,0.0144
2612.00,0.0143
2611.00,0.0143
2610.00,0.0143
2609.00,0.0143
2608.00,0.0142
2607.00,0.0142
2606.00,0.0141
2605.00,0.0140
2604.00,0.0139
2603.00,0.0139
2602.00,0.0139
2601.00,0.0139
2600.00,0.0138
2599.00,0.0138
2598.00,0.0137
2597.00,0.0137
2596.00,0.0137
2595.00,0.0137
2594.00,0.0137
2593.00,0.0136
2592.00,0.0135
2591.00,0.0135
2590.00,0.0134
2589.00,0.0134
2588.00,0.0134
2587.00,0.0134
2586.00,0.0134
2585.00,0.0134
2584.00,0.0133
2583.00,0.0133
2582.00,0.0132
2581.00,0.0132
2580.00,0.0132
2579.00,0.0131
2578.00,0.0131
2577.00,0.0131
2576.00,0.0131
2575.00,0.0131
2574.00,0.0131
2573.00,0.0130
2572.00,0.0129
2571.00,0.0129
2570.00,0.0128
2569.00,0.0128
2568.00,0.0127
2567.00,0.0127
2566.00,0.0127
2565.00,0.0127
2564.00,0.0127
2563.00,0.0127
2562.00,0.0127
2561.00,0.0127
2560.00,0.0126
2559.00,0.0126
2558.00,0.0125
2557.00,0.0125
2556.00,0.0125
2555.00,0.0124
2554.00,0.0124
2553.00,0.0124
2552.00,0.0124
2551.00,0.0124
2550.00,0.0124
2549.00,0.0124
2548.00,0.0124
2547.00,0.0124
2546.00,0.0123
2545.00,0.0123
2544.00,0.0123
2543.00,0.0122
2542.00,0.0121
2541.00,0.0121
2540.00,0.0121
2539.00,0.0122
2538.00,0.0122
2537.00,0.0122
2536.00,0.0122
2535.00,0.0121
2534.00,0.0121
2533.00,0.0120
2532.00,0.0120
2531.00,0.0120
2530.00,0.0120
2529.00,0.0119
2528.00,0.0119
2527.00,0.0119
2526.00,0.0119
2525.00,0.0119
2524.00,0.0119
2523.00,0.0119
2522.00,0.0118
2521.00,0.0118
2520.00,0.0118
2519.00,0.0119
2518.00,0.0119
2517.00,0.0119
2516.00,0.0118
2515.00,0.0118
2514.00,0.0118
2513.00,0.0118
2512.00,0.0118
2511.00,0.0118
2510.00,0.0117
2509.00,0.0116
2508.00,0.0116
2507.00,0.0117
2506.00,0.0117
2505.00,0.0118
2504.00,0.0118
2503.00,0.0118
2502.00,0.0118
2501.00,0.0118
2500.00,0.0117
2499.00,0.0117
2498.00,0.0116
2497.00,0.0116
2496.00,0.0116
2495.00,0.0116
2494.00,0.0116
2493.00,0.0115
2492.00,0.0115
2491.00,0.0115
2490.00,0.0115
2489.00,0.0115
2488.00,0.0115
2487.00,0.0115
2486.00,0.0114
2485.00,0.0114
2484.00,0.0115
2483.00,0.0115
2482.00,0.0115
2481.00,0.0115
2480.00,0.0115
2479.00,0.0115
2478.00,0.0114
2477.00,0.0114
2476.00,0.0114
2475.00,0.0114
2474.00,0.0113
2473.00,0.0113
2472.00,0.0113
2471.00,0.0113
2470.00,0.0113
2469.00,0.0113
2468.00,0.0112
2467.00,0.0112
2466.00,0.0112
2465.00,0.0111
2464.00,0.0112
2463.00,0.0112
2462.00,0.0113
2461.00,0.0113
2460.00,0.0114
2459.00,0.0114
2458.00,0.0114
2457.00,0.0114
2456.00,0.0114
2455.00,0.0115
2454.00,0.0115
2453.00,0.0115
2452.00,0.0115
2451.00,0.0114
2450.00,0.0113
2449.00,0.0112
2448.00,0.0112
2447.00,0.0112
2446.00,0.0112
2445.00,0.0112
2444.00,0.0112
2443.00,0.0111
2442.00,0.0111
2441.00,0.0111
2440.00,0.0111
2439.00,0.0111
2438.00,0.0111
2437.00,0.0111
2436.00,0.0111
2435.00,0.0111
2434.00,0.0111
2433.00,0.0110
2432.00,0.0110
2431.00,0.0109
2430.00,0.0109
2429.00,0.0108
2428.00,0.0108
2427.00,0.0108
2426.00,0.0108
2425.00,0.0108
2424.00,0.0108
2423.00,0.0107
2422.00,0.0107
2421.00,0.0107
2420.00,0.0108
2419.00,0.0108
2418.00,0.0109
2417.00,0.0109
2416.00,0.0109
2415.00,0.0108
2414.00,0.0108
2413.00,0.0109
2412.00,0.0109
2411.00,0.0109
2410.00,0.0110
2409.00,0.0110
2408.00,0.0109
2407.00,0.0108
2406.00,0.0107
2405.00,0.0106
2404.00,0.0106
2403.00,0.0106
2402.00,0.0106
2401.00,0.0107
2400.00,0.0107
2399.00,0.0108
2398.00,0.0108
2397.00,0.0108
2396.00,0.0108
2395.00,0.0108
2394.00,0.0108
2393.00,0.0108
2392.00,0.0108
2391.00,0.0108
2390.00,0.0108
2389.00,0.0109
2388.00,0.0109
2387.00,0.0109
2386.00,0.0109
2385.00,0.0109
2384.00,0.0109
2383.00,0.0108
2382.00,0.0107
2381.00,0.0106
2380.00,0.0105
2379.00,0.0104
2378.00,0.0103
2377.00,0.0103
2376.00,0.0103
2375.00,0.0104
2374.00,0.0105
2373.00,0.0106
2372.00,0.0106
2371.00,0.0106
2370.00,0.0106
2369.00,0.0105
2368.00,0.0105
2367.00,0.0104
2366.00,0.0104
2365.00,0.0103
2364.00,0.0103
2363.00,0.0104
2362.00,0.0105
2361.00,0.0106
2360.00,0.0106
2359.00,0.0107
2358.00,0.0108
2357.00,0.0108
2356.00,0.0108
2355.00,0.0107
2354.00,0.0107
2353.00,0.0107
2352.00,0.0107
2351.00,0.0108
2350.00,0.0125
2349.00,0.0125
2348.00,0.0125
2347.00,0.0125
2346.00,0.0124
2345.00,0.0125
2344.00,0.0125
2343.00,0.0110
2342.00,0.0112
2341.00,0.0113
2340.00,0.0114
2339.00,0.0115
2338.00,0.0116
2337.00,0.0116
2336.00,0.0116
2335.00,0.0116
2334.00,0.0117
2333.00,0.0117
2332.00,0.0117
2331.00,0.0117
2330.00,0.0118
2329.00,0.0120
2328.00,0.0122
2327.00,0.0126
2326.00,0.0130
2325.00,0.0133
2324.00,0.0134
2323.00,0.0134
2322.00,0.0132
2321.00,0.0130
2320.00,0.0129
2319.00,0.0128
2318.00,0.0128
2317.00,0.0128
2316.00,0.0128
2315.00,0.0127
2314.00,0.0127
2313.00,0.0126
2312.00,0.0125
2311.00,0.0125
2310.00,0.0125
2309.00,0.0125
2308.00,0.0125
2307.00,0.0125
2306.00,0.0125
2305.00,0.0124
2304.00,0.0124
2303.00,0.0124
2302.00,0.0124
2301.00,0.0124
2300.00,0.0125
2299.00,0.0125
2298.00,0.0126
2297.00,0.0126
2296.00,0.0126
2295.00,0.0127
2294.00,0.0128
2293.00,0.0129
2292.00,0.0130
2291.00,0.0131
2290.00,0.0131
2289.00,0.0132
2288.00,0.0132
2287.00,0.0133
2286.00,0.0133
2285.00,0.0133
2284.00,0.0133
2283.00,0.0132
2282.00,0.0131
2281.00,0.0130
2280.00,0.0129
2279.00,0.0128
2278.00,0.0126
2277.00,0.0125
2276.00,0.0124
2275.00,0.0124
2274.00,0.0125
2273.00,0.0125
2272.00,0.0126
2271.00,0.0126
2270.00,0.0125
2269.00,0.0125
2268.00,0.0125
2267.00,0.0124
2266.00,0.0123
2265.00,0.0122
2264.00,0.0121
2263.00,0.0120
2262.00,0.0120
2261.00,0.0121
2260.00,0.0122
2259.00,0.0122
2258.00,0.0122
2257.00,0.0122
2256.00,0.0121
2255.00,0.0121
2254.00,0.0121
2253.00,0.0122
2252.00,0.0122
2251.00,0.0122
2250.00,0.0122
2249.00,0.0121
2248.00,0.0120
2247.00,0.0119
2246.00,0.0119
2245.00,0.0119
2244.00,0.0120
2243.00,0.0122
2242.00,0.0123
2241.00,0.0124
2240.00,0.0124
2239.00,0.0124
2238.00,0.0124
2237.00,0.0123
2236.00,0.0122
2235.00,0.0121
2234.00,0.0119
2233.00,0.0118
2232.00,0.0117
2231.00,0.0118
2230.00,0.0119
2229.00,0.0120
2228.00,0.0120
2227.00,0.0120
2226.00,0.0120
2225.00,0.0119
2224.00,0.0120
2223.00,0.0121
2222.00,0.0121
2221.00,0.0121
2220.00,0.0121
2219.00,0.0121
2218.00,0.0119
2217.00,0.0118
2216.00,0.0117
2215.00,0.0116
2214.00,0.0116
2213.00,0.0117
2212.00,0.0119
2211.00,0.0119
2210.00,0.0118
2209.00,0.0117
2208.00,0.0116
2207.00,0.0117
2206.00,0.0117
2205.00,0.0117
2204.00,0.0118
2203.00,0.0118
2202.00,0.0117
2201.00,0.0117
2200.00,0.0118
2199.00,0.0118
2198.00,0.0118
2197.00,0.0118
2196.00,0.0118
2195.00,0.0117
2194.00,0.0117
2193.00,0.0117
2192.00,0.0119
2191.00,0.0121
2190.00,0.0121
2189.00,0.0120
2188.00,0.0120
2187.00,0.0119
2186.00,0.0118
2185.00,0.0116
2184.00,0.0113
2183.00,0.0110
2182.00,0.0107
2181.00,0.0106
2180.00,0.0105
2179.00,0.0105
2178.00,0.0105
2177.00,0.0106
2176.00,0.0107
2175.00,0.0107
2174.00,0.0106
2173.00,0.0104
2172.00,0.0104
2171.00,0.0105
2170.00,0.0107
2169.00,0.0111
2168.00,0.0113
2167.00,0.0115
2166.00,0.0116
2165.00,0.0118
2164.00,0.0120
2163.00,0.0121
2162.00,0.0120
2161.00,0.0114
2160.00,0.0104
2159.00,0.0090
2158.00,0.0077
2157.00,0.0070
2156.00,0.0068
2155.00,0.0071
2154.00,0.0073
2153.00,0.0077
2152.00,0.0081
2151.00,0.0085
2150.00,0.0088
2149.00,0.0090
2148.00,0.0091
2147.00,0.0091
2146.00,0.0092
2145.00,0.0094
2144.00,0.0095
2143.00,0.0096
2142.00,0.0096
2141.00,0.0097
2140.00,0.0099
2139.00,0.0101
2138.00,0.0101
2137.00,0.0101
2136.00,0.0100
2135.00,0.0098
2134.00,0.0097
2133.00,0.0097
2132.00,0.0098
2131.00,0.0100
2130.00,0.0103
2129.00,0.0106
2128.00,0.0110
2127.00,0.0113
2126.00,0.0115
2125.00,0.0115
2124.00,0.0115
2123.00,0.0116
2122.00,0.0116
2121.00,0.0118
2120.00,0.0120
2119.00,0.0121
2118.00,0.0122
2117.00,0.0124
2116.00,0.0127
2115.00,0.0129
2114.00,0.0130
2113.00,0.0130
2112.00,0.0131
2111.00,0.0131
2110.00,0.0131
2109.00,0.0131
2108.00,0.0131
2107.00,0.0131
2106.00,0.0130
2105.00,0.0130
2104.00,0.0131
2103.00,0.0132
2102.00,0.0133
2101.00,0.0133
2100.00,0.0132
2099.00,0.0131
2098.00,0.0128
2097.00,0.0125
2096.00,0.0123
2095.00,0.0122
2094.00,0.0121
2093.00,0.0121
2092.00,0.0121
2091.00,0.0121
2090.00,0.0122
2089.00,0.0123
2088.00,0.0125
2087.00,0.0127
2086.00,0.0128
2085.00,0.0128
2084.00,0.0128
2083.00,0.0126
2082.00,0.0124
2081.00,0.0123
2080.00,0.0122
2079.00,0.0121
2078.00,0.0120
2077.00,0.0120
2076.00,0.0121
2075.00,0.0120
2074.00,0.0119
2073.00,0.0119
2072.00,0.0118
2071.00,0.0118
2070.00,0.0117
2069.00,0.0116
2068.00,0.0114
2067.00,0.0113
2066.00,0.0111
2065.00,0.0111
2064.00,0.0111
2063.00,0.0110
2062.00,0.0109
2061.00,0.0109
2060.00,0.0110
2059.00,0.0111
2058.00,0.0111
2057.00,0.0111
2056.00,0.0111
2055.00,0.0110
2054.00,0.0111
2053.00,0.0114
2052.00,0.0118
2051.00,0.0120
2050.00,0.0118
2049.00,0.0114
2048.00,0.0108
2047.00,0.0104
2046.00,0.0100
2045.00,0.0098
2044.00,0.0097
2043.00,0.0096
2042.00,0.0095
2041.00,0.0094
2040.00,0.0092
2039.00,0.0090
2038.00,0.0089
2037.00,0.0088
2036.00,0.0089
2035.00,0.0087
2034.00,0.0085
2033.00,0.0082
2032.00,0.0080
2031.00,0.0078
2030.00,0.0077
2029.00,0.0075
2028.00,0.0074
2027.00,0.0073
2026.00,0.0072
2025.00,0.0071
2024.00,0.0070
2023.00,0.0069
2022.00,0.0069
2021.00,0.0070
2020.00,0.0070
2019.00,0.0068
2018.00,0.0066
2017.00,0.0065
2016.00,0.0067
2015.00,0.0071
2014.00,0.0074
2013.00,0.0076
2012.00,0.0076
2011.00,0.0075
2010.00,0.0074
2009.00,0.0074
2008.00,0.0073
2007.00,0.0069
2006.00,0.0064
2005.00,0.0061
2004.00,0.0062
2003.00,0.0064
2002.00,0.0067
2001.00,0.0070
2000.00,0.0073
1999.00,0.0075
1998.00,0.0075
1997.00,0.0076
1996.00,0.0077
1995.00,0.0078
1994.00,0.0079
1993.00,0.0080
1992.00,0.0082
1991.00,0.0083
1990.00,0.0083
1989.00,0.0084
1988.00,0.0086
1987.00,0.0088
1986.00,0.0088
1985.00,0.0088
1984.00,0.0088
1983.00,0.0088
1982.00,0.0089
1981.00,0.0090
1980.00,0.0091
1979.00,0.0088
1978.00,0.0081
1977.00,0.0072
1976.00,0.0066
1975.00,0.0062
1974.00,0.0059
1973.00,0.0059
1972.00,0.0060
1971.00,0.0060
1970.00,0.0059
1969.00,0.0059
1968.00,0.0059
1967.00,0.0060
1966.00,0.0061
1965.00,0.0063
1964.00,0.0065
1963.00,0.0067
1962.00,0.0068
1961.00,0.0068
1960.00,0.0068
1959.00,0.0068
1958.00,0.0068
1957.00,0.0070
1956.00,0.0073
1955.00,0.0074
1954.00,0.0075
1953.00,0.0075
1952.00,0.0075
1951.00,0.0075
1950.00,0.0075
1949.00,0.0075
1948.00,0.0076
1947.00,0.0077
1946.00,0.0077
1945.00,0.0076
1944.00,0.0075
1943.00,0.0074
1942.00,0.0073
1941.00,0.0075
1940.00,0.0077
1939.00,0.0078
1938.00,0.0079
1937.00,0.0079
1936.00,0.0079
1935.00,0.0079
1934.00,0.0078
1933.00,0.0077
1932.00,0.0077
1931.00,0.0078
1930.00,0.0078
1929.00,0.0078
1928.00,0.0079
1927.00,0.0078
1926.00,0.0077
1925.00,0.0076
1924.00,0.0075
1923.00,0.0074
1922.00,0.0074
1921.00,0.0076
1920.00,0.0078
1919.00,0.0079
1918.00,0.0078
1917.00,0.0078
1916.00,0.0078
1915.00,0.0078
1914.00,0.0078
1913.00,0.0078
1912.00,0.0078
1911.00,0.0077
1910.00,0.0076
1909.00,0.0075
1908.00,0.0075
1907.00,0.0076
1906.00,0.0077
1905.00,0.0077
1904.00,0.0077
1903.00,0.0077
1902.00,0.0076
1901.00,0.0076
1900.00,0.0076
1899.00,0.0075
1898.00,0.0075
1897.00,0.0075
1896.00,0.0076
1895.00,0.0076
1894.00,0.0075
1893.00,0.0075
1892.00,0.0075
1891.00,0.0075
1890.00,0.0074
1889.00,0.0074
1888.00,0.0074
1887.00,0.0074
1886.00,0.0074
1885.00,0.0074
1884.00,0.0073
1883.00,0.0072
1882.00,0.0072
1881.00,0.0071
1880.00,0.0071
1879.00,0.0070
1878.00,0.0070
1877.00,0.0070
1876.00,0.0070
1875.00,0.0070
1874.00,0.0069
1873.00,0.0070
1872.00,0.0070
1871.00,0.0071
1870.00,0.0070
1869.00,0.0069
1868.00,0.0069
1867.00,0.0069
1866.00,0.0069
1865.00,0.0069
1864.00,0.0069
1863.00,0.0069
1862.00,0.0068
1861.00,0.0068
1860.00,0.0068
1859.00,0.0068
1858.00,0.0068
1857.00,0.0068
1856.00,0.0069
1855.00,0.0069
1854.00,0.0068
1853.00,0.0067
1852.00,0.0066
1851.00,0.0066
1850.00,0.0066
1849.00,0.0065
1848.00,0.0066
1847.00,0.0066
1846.00,0.0067
1845.00,0.0067
1844.00,0.0067
1843.00,0.0065
1842.00,0.0064
1841.00,0.0064
1840.00,0.0066
1839.00,0.0066
1838.00,0.0065
1837.00,0.0064
1836.00,0.0064
1835.00,0.0064
1834.00,0.0064
1833.00,0.0064
1832.00,0.0066
1831.00,0.0067
1830.00,0.0067
1829.00,0.0066
1828.00,0.0065
1827.00,0.0064
1826.00,0.0063
1825.00,0.0062
1824.00,0.0062
1823.00,0.0063
1822.00,0.0063
1821.00,0.0063
1820.00,0.0062
1819.00,0.0061
1818.00,0.0059
1817.00,0.0058
1816.00,0.0059
1815.00,0.0060
1814.00,0.0061
1813.00,0.0061
1812.00,0.0062
1811.00,0.0062
1810.00,0.0061
1809.00,0.0060
1808.00,0.0060
1807.00,0.0060
1806.00,0.0061
1805.00,0.0061
1804.00,0.0061
1803.00,0.0060
1802.00,0.0059
1801.00,0.0060
1800.00,0.0061
1799.00,0.0062
1798.00,0.0061
1797.00,0.0061
1796.00,0.0061
1795.00,0.0062
1794.00,0.0064
1793.00,0.0065
1792.00,0.0063
1791.00,0.0061
1790.00,0.0059
1789.00,0.0060
1788.00,0.0061
1787.00,0.0062
1786.00,0.0061
1785.00,0.0060
1784.00,0.0060
1783.00,0.0060
1782.00,0.0061
1781.00,0.0061
1780.00,0.0060
1779.00,0.0059
1778.00,0.0059
1777.00,0.0059
1776.00,0.0060
1775.00,0.0062
1774.00,0.0064
1773.00,0.0067
1772.00,0.0067
1771.00,0.0065
1770.00,0.0061
1769.00,0.0059
1768.00,0.0058
1767.00,0.0058
1766.00,0.0059
1765.00,0.0060
1764.00,0.0062
1763.00,0.0063
1762.00,0.0063
1761.00,0.0063
1760.00,0.0063
1759.00,0.0063
1758.00,0.0064
1757.00,0.0066
1756.00,0.0068
1755.00,0.0070
1754.00,0.0073
1753.00,0.0075
1752.00,0.0077
1751.00,0.0080
1750.00,0.0083
1749.00,0.0087
1748.00,0.0092
1747.00,0.0095
1746.00,0.0097
1745.00,0.0098
1744.00,0.0101
1743.00,0.0104
1742.00,0.0109
1741.00,0.0115
1740.00,0.0120
1739.00,0.0122
1738.00,0.0121
1737.00,0.0122
1736.00,0.0125
1735.00,0.0128
1734.00,0.0129
1733.00,0.0128
1732.00,0.0128
1731.00,0.0130
1730.00,0.0132
1729.00,0.0134
1728.00,0.0137
1727.00,0.0140
1726.00,0.0142
1725.00,0.0144
1724.00,0.0147
1723.00,0.0151
1722.00,0.0153
1721.00,0.0157
1720.00,0.0161
1719.00,0.0165
1718.00,0.0167
1717.00,0.0169
1716.00,0.0174
1715.00,0.0179
1714.00,0.0183
1713.00,0.0188
1712.00,0.0193
1711.00,0.0198
1710.00,0.0203
1709.00,0.0210
1708.00,0.0218
1707.00,0.0227
1706.00,0.0237
1705.00,0.0246
1704.00,0.0254
1703.00,0.0263
1702.00,0.0275
1701.00,0.0293
1700.00,0.0314
1699.00,0.0328
1698.00,0.0338
1697.00,0.0352
1696.00,0.0372
1695.00,0.0394
1694.00,0.0412
1693.00,0.0428
1692.00,0.0444
1691.00,0.0462
1690.00,0.0481
1689.00,0.0501
1688.00,0.0521
1687.00,0.0539
1686.00,0.0559
1685.00,0.0588
1684.00,0.0625
1683.00,0.0657
1682.00,0.0678
1681.00,0.0695
1680.00,0.0713
1679.00,0.0733
1678.00,0.0753
1677.00,0.0775
1676.00,0.0802
1675.00,0.0833
1674.00,0.0861
1673.00,0.0882
1672.00,0.0902
1671.00,0.0925
1670.00,0.0953
1669.00,0.0986
1668.00,0.1016
1667.00,0.1040
1666.00,0.1058
1665.00,0.1078
1664.00,0.1102
1663.00,0.1133
1662.00,0.1166
1661.00,0.1195
1660.00,0.1219
1659.00,0.1241
1658.00,0.1259
1657.00,0.1273
1656.00,0.1283
1655.00,0.1295
1654.00,0.1322
1653.00,0.1371
1652.00,0.1415
1651.00,0.1433
1650.00,0.1434
1649.00,0.1433
1648.00,0.1437
1647.00,0.1453
1646.00,0.1473
1645.00,0.1488
1644.00,0.1495
1643.00,0.1497
1642.00,0.1496
1641.00,0.1496
1640.00,0.1496
1639.00,0.1495
1638.00,0.1493
1637.00,0.1494
1636.00,0.1502
1635.00,0.1514
1634.00,0.1516
1633.00,0.1507
1632.00,0.1493
1631.00,0.1477
1630.00,0.1462
1629.00,0.1447
1628.00,0.1434
1627.00,0.1420
1626.00,0.1404
1625.00,0.1386
1624.00,0.1368
1623.00,0.1349
1622.00,0.1330
1621.00,0.1309
1620.00,0.1286
1619.00,0.1262
1618.00,0.1238
1617.00,0.1216
1616.00,0.1196
1615.00,0.1175
1614.00,0.1152
1613.00,0.1126
1612.00,0.1100
1611.00,0.1073
1610.00,0.1048
1609.00,0.1023
1608.00,0.0999
1607.00,0.0976
1606.00,0.0954
1605.00,0.0932
1604.00,0.0910
1603.00,0.0888
1602.00,0.0868
1601.00,0.0848
1600.00,0.0829
1599.00,0.0810
1598.00,0.0791
1597.00,0.0773
1596.00,0.0755
1595.00,0.0738
1594.00,0.0723
1593.00,0.0708
1592.00,0.0693
1591.00,0.0679
1590.00,0.0667
1589.00,0.0655
1588.00,0.0644
1587.00,0.0635
1586.00,0.0626
1585.00,0.0618
1584.00,0.0611
1583.00,0.0604
1582.00,0.0600
1581.00,0.0595
1580.00,0.0590
1579.00,0.0585
1578.00,0.0582
1577.00,0.0581
1576.00,0.0584
1575.00,0.0586
1574.00,0.0586
1573.00,0.0583
1572.00,0.0581
1571.00,0.0581
1570.00,0.0585
1569.00,0.0590
1568.00,0.0593
1567.00,0.0594
1566.00,0.0597
1565.00,0.0601
1564.00,0.0604
1563.00,0.0605
1562.00,0.0604
1561.00,0.0605
1560.00,0.0614
1559.00,0.0636
1558.00,0.0660
1557.00,0.0669
1556.00,0.0669
1555.00,0.0668
1554.00,0.0670
1553.00,0.0673
1552.00,0.0674
1551.00,0.0674
1550.00,0.0676
1549.00,0.0678
1548.00,0.0680
1547.00,0.0678
1546.00,0.0674
1545.00,0.0670
1544.00,0.0667
1543.00,0.0665
1542.00,0.0665
1541.00,0.0664
1540.00,0.0662
1539.00,0.0656
1538.00,0.0645
1537.00,0.0632
1536.00,0.0618
1535.00,0.0606
1534.00,0.0594
1533.00,0.0582
1532.00,0.0571
1531.00,0.0559
1530.00,0.0547
1529.00,0.0534
1528.00,0.0520
1527.00,0.0507
1526.00,0.0495
1525.00,0.0485
1524.00,0.0475
1523.00,0.0464
1522.00,0.0453
1521.00,0.0442
1520.00,0.0433
1519.00,0.0425
1518.00,0.0415
1517.00,0.0401
1516.00,0.0387
1515.00,0.0374
1514.00,0.0360
1513.00,0.0345
1512.00,0.0328
1511.00,0.0312
1510.00,0.0296
1509.00,0.0281
1508.00,0.0269
1507.00,0.0260
1506.00,0.0254
1505.00,0.0246
1504.00,0.0234
1503.00,0.0222
1502.00,0.0212
1501.00,0.0202
1500.00,0.0194
1499.00,0.0186
1498.00,0.0178
1497.00,0.0170
1496.00,0.0162
1495.00,0.0155
1494.00,0.0149
1493.00,0.0144
1492.00,0.0138
1491.00,0.0132
1490.00,0.0126
1489.00,0.0123
1488.00,0.0122
1487.00,0.0122
1486.00,0.0121
1485.00,0.0120
1484.00,0.0119
1483.00,0.0120
1482.00,0.0122
1481.00,0.0125
1480.00,0.0129
1479.00,0.0133
1478.00,0.0137
1477.00,0.0141
1476.00,0.0147
1475.00,0.0153
1474.00,0.0162
1473.00,0.0174
1472.00,0.0187
1471.00,0.0197
1470.00,0.0204
1469.00,0.0209
1468.00,0.0213
1467.00,0.0217
1466.00,0.0222
1465.00,0.0228
1464.00,0.0234
1463.00,0.0239
1462.00,0.0242
1461.00,0.0244
1460.00,0.0247
1459.00,0.0250
1458.00,0.0255
1457.00,0.0264
1456.00,0.0273
1455.00,0.0278
1454.00,0.0280
1453.00,0.0280
1452.00,0.0279
1451.00,0.0278
1450.00,0.0277
1449.00,0.0276
1448.00,0.0277
1447.00,0.0277
1446.00,0.0277
1445.00,0.0277
1444.00,0.0276
1443.00,0.0276
1442.00,0.0276
1441.00,0.0276
1440.00,0.0275
1439.00,0.0274
1438.00,0.0274
1437.00,0.0277
1436.00,0.0281
1435.00,0.0286
1434.00,0.0289
1433.00,0.0291
1432.00,0.0294
1431.00,0.0298
1430.00,0.0303
1429.00,0.0308
1428.00,0.0313
1427.00,0.0317
1426.00,0.0320
1425.00,0.0323
1424.00,0.0328
1423.00,0.0333
1422.00,0.0336
1421.00,0.0339
1420.00,0.0341
1419.00,0.0345
1418.00,0.0349
1417.00,0.0354
1416.00,0.0357
1415.00,0.0358
1414.00,0.0357
1413.00,0.0356
1412.00,0.0354
1411.00,0.0351
1410.00,0.0348
1409.00,0.0346
1408.00,0.0342
1407.00,0.0338
1406.00,0.0333
1405.00,0.0329
1404.00,0.0325
1403.00,0.0320
1402.00,0.0314
1401.00,0.0308
1400.00,0.0300
1399.00,0.0292
1398.00,0.0284
1397.00,0.0277
1396.00,0.0271
1395.00,0.0265
1394.00,0.0261
1393.00,0.0257
1392.00,0.0253
1391.00,0.0249
1390.00,0.0243
1389.00,0.0237
1388.00,0.0233
1387.00,0.0231
1386.00,0.0231
1385.00,0.0232
1384.00,0.0233
1383.00,0.0232
1382.00,0.0232
1381.00,0.0231
1380.00,0.0231
1379.00,0.0231
1378.00,0.0231
1377.00,0.0231
1376.00,0.0230
1375.00,0.0228
1374.00,0.0227
1373.00,0.0227
1372.00,0.0228
1371.00,0.0227
1370.00,0.0225
1369.00,0.0223
1368.00,0.0220
1367.00,0.0218
1366.00,0.0214
1365.00,0.0209
1364.00,0.0203
1363.00,0.0197
1362.00,0.0195
1361.00,0.0194
1360.00,0.0193
1359.00,0.0192
1358.00,0.0190
1357.00,0.0187
1356.00,0.0184
1355.00,0.0180
1354.00,0.0177
1353.00,0.0174
1352.00,0.0171
1351.00,0.0167
1350.00,0.0163
1349.00,0.0159
1348.00,0.0154
1347.00,0.0150
1346.00,0.0145
1345.00,0.0140
1344.00,0.0135
1343.00,0.0129
1342.00,0.0122
1341.00,0.0114
1340.00,0.0106
1339.00,0.0101
1338.00,0.0098
1337.00,0.0097
1336.00,0.0094
1335.00,0.0092
1334.00,0.0088
1333.00,0.0084
1332.00,0.0080
1331.00,0.0077
1330.00,0.0074
1329.00,0.0072
1328.00,0.0071
1327.00,0.0070
1326.00,0.0070
1325.00,0.0070
1324.00,0.0071
1323.00,0.0071
1322.00,0.0072
1321.00,0.0072
1320.00,0.0073
1319.00,0.0074
1318.00,0.0076
1317.00,0.0077
1316.00,0.0078
1315.00,0.0078
1314.00,0.0078
1313.00,0.0078
1312.00,0.0079
1311.00,0.0080
1310.00,0.0081
1309.00,0.0081
1308.00,0.0082
1307.00,0.0083
1306.00,0.0084
1305.00,0.0087
1304.00,0.0090
1303.00,0.0093
1302.00,0.0097
1301.00,0.0102
1300.00,0.0107
1299.00,0.0113
1298.00,0.0120
1297.00,0.0128
1296.00,0.0138
1295.00,0.0149
1294.00,0.0160
1293.00,0.0173
1292.00,0.0188
1291.00,0.0203
1290.00,0.0220
1289.00,0.0238
1288.00,0.0259
1287.00,0.0280
1286.00,0.0303
1285.00,0.0327
1284.00,0.0352
1283.00,0.0377
1282.00,0.0402
1281.00,0.0428
1280.00,0.0455
1279.00,0.0483
1278.00,0.0510
1277.00,0.0538
1276.00,0.0566
1275.00,0.0594
1274.00,0.0621
1273.00,0.0649
1272.00,0.0678
1271.00,0.0707
1270.00,0.0735
1269.00,0.0763
1268.00,0.0792
1267.00,0.0819
1266.00,0.0845
1265.00,0.0871
1264.00,0.0896
1263.00,0.0920
1262.00,0.0943
1261.00,0.0965
1260.00,0.0986
1259.00,0.1006
1258.00,0.1025
1257.00,0.1042
1256.00,0.1059
1255.00,0.1075
1254.00,0.1090
1253.00,0.1104
1252.00,0.1119
1251.00,0.1132
1250.00,0.1145
1249.00,0.1158
1248.00,0.1171
1247.00,0.1183
1246.00,0.1195
1245.00,0.1207
1244.00,0.1219
1243.00,0.1232
1242.00,0.1244
1241.00,0.1256
1240.00,0.1268
1239.00,0.1281
1238.00,0.1293
1237.00,0.1306
1236.00,0.1319
1235.00,0.1331
1234.00,0.1343
1233.00,0.1354
1232.00,0.1366
1231.00,0.1377
1230.00,0.1388
1229.00,0.1399
1228.00,0.1410
1227.00,0.1420
1226.00,0.1429
1225.00,0.1438
1224.00,0.1446
1223.00,0.1453
1222.00,0.1458
1221.00,0.1462
1220.00,0.1464
1219.00,0.1464
1218.00,0.1462
1217.00,0.1457
1216.00,0.1451
1215.00,0.1441
1214.00,0.1428
1213.00,0.1413
1212.00,0.1396
1211.00,0.1376
1210.00,0.1354
1209.00,0.1329
1208.00,0.1303
1207.00,0.1275
1206.00,0.1245
1205.00,0.1215
1204.00,0.1184
1203.00,0.1152
1202.00,0.1119
1201.00,0.1086
1200.00,0.1054
1199.00,0.1023
1198.00,0.0994
1197.00,0.0967
1196.00,0.0942
1195.00,0.0920
1194.00,0.0899
1193.00,0.0880
1192.00,0.0864
1191.00,0.0850
1190.00,0.0836
1189.00,0.0825
1188.00,0.0816
1187.00,0.0808
1186.00,0.0802
1185.00,0.0797
1184.00,0.0793
1183.00,0.0791
1182.00,0.0790
1181.00,0.0791
1180.00,0.0793
1179.00,0.0795
1178.00,0.0799
1177.00,0.0804
1176.00,0.0810
1175.00,0.0818
1174.00,0.0828
1173.00,0.0841
1172.00,0.0855
1171.00,0.0871
1170.00,0.0889
1169.00,0.0908
1168.00,0.0929
1167.00,0.0952
1166.00,0.0975
1165.00,0.0998
1164.00,0.1022
1163.00,0.1047
1162.00,0.1071
1161.00,0.1094
1160.00,0.1116
1159.00,0.1137
1158.00,0.1156
1157.00,0.1174
1156.00,0.1191
1155.00,0.1206
1154.00,0.1220
1153.00,0.1231
1152.00,0.1241
1151.00,0.1247
1150.00,0.1249
1149.00,0.1248
1148.00,0.1245
1147.00,0.1239
1146.00,0.1230
1145.00,0.1219
1144.00,0.1206
1143.00,0.1192
1142.00,0.1176
1141.00,0.1160
1140.00,0.1145
1139.00,0.1130
1138.00,0.1116
1137.00,0.1105
1136.00,0.1096
1135.00,0.1090
1134.00,0.1086
1133.00,0.1084
1132.00,0.1084
1131.00,0.1084
1130.00,0.1086
1129.00,0.1089
1128.00,0.1092
1127.00,0.1094
1126.00,0.1093
1125.00,0.1091
1124.00,0.1086
1123.00,0.1079
1122.00,0.1070
1121.00,0.1059
1120.00,0.1048
1119.00,0.1037
1118.00,0.1026
1117.00,0.1016
1116.00,0.1006
1115.00,0.0998
1114.00,0.0992
1113.00,0.0988
1112.00,0.0986
1111.00,0.0987
1110.00,0.0990
1109.00,0.0996
1108.00,0.1006
1107.00,0.1017
1106.00,0.1030
1105.00,0.1045
1104.00,0.1060
1103.00,0.1077
1102.00,0.1095
1101.00,0.1114
1100.00,0.1133
1099.00,0.1153
1098.00,0.1174
1097.00,0.1195
1096.00,0.1218
1095.00,0.1240
1094.00,0.1262
1093.00,0.1286
1092.00,0.1312
1091.00,0.1340
1090.00,0.1368
1089.00,0.1398
1088.00,0.1430
1087.00,0.1462
1086.00,0.1495
1085.00,0.1530
1084.00,0.1565
1083.00,0.1600
1082.00,0.1635
1081.00,0.1670
1080.00,0.1704
1079.00,0.1735
1078.00,0.1765
1077.00,0.1792
1076.00,0.1816
1075.00,0.1834
1074.00,0.1847
1073.00,0.1856
1072.00,0.1860
1071.00,0.1859
1070.00,0.1853
1069.00,0.1845
1068.00,0.1836
1067.00,0.1827
1066.00,0.1819
1065.00,0.1813
1064.00,0.1809
1063.00,0.1807
1062.00,0.1808
1061.00,0.1811
1060.00,0.1818
1059.00,0.1825
1058.00,0.1834
1057.00,0.1846
1056.00,0.1859
1055.00,0.1874
1054.00,0.1889
1053.00,0.1905
1052.00,0.1924
1051.00,0.1944
1050.00,0.1964
1049.00,0.1986
1048.00,0.2009
1047.00,0.2032
1046.00,0.2055
1045.00,0.2078
1044.00,0.2099
1043.00,0.2119
1042.00,0.2137
1041.00,0.2154
1040.00,0.2171
1039.00,0.2186
1038.00,0.2199
1037.00,0.2212
1036.00,0.2224
1035.00,0.2236
1034.00,0.2249
1033.00,0.2263
1032.00,0.2280
1031.00,0.2298
1030.00,0.2314
1029.00,0.2331
1028.00,0.2349
1027.00,0.2365
1026.00,0.2382
1025.00,0.2398
1024.00,0.2415
1023.00,0.2431
1022.00,0.2445
1021.00,0.2457
1020.00,0.2469
1019.00,0.2477
1018.00,0.2482
1017.00,0.2484
1016.00,0.2481
1015.00,0.2473
1014.00,0.2458
1013.00,0.2440
1012.00,0.2419
1011.00,0.2394
1010.00,0.2366
1009.00,0.2335
1008.00,0.2303
1007.00,0.2268
1006.00,0.2231
1005.00,0.2195
1004.00,0.2158
1003.00,0.2120
1002.00,0.2081
1001.00,0.2042
1000.00,0.2002
999.00,0.1961
998.00,0.1918
997.00,0.1874
996.00,0.1828
995.00,0.1781
994.00,0.1731
993.00,0.1681
992.00,0.1630
991.00,0.1578
990.00,0.1525
989.00,0.1472
988.00,0.1421
987.00,0.1370
986.00,0.1321
985.00,0.1274
984.00,0.1230
983.00,0.1189
982.00,0.1150
981.00,0.1114
980.00,0.1080
979.00,0.1048
978.00,0.1017
977.00,0.0987
976.00,0.0958
975.00,0.0929
974.00,0.0898
973.00,0.0866
972.00,0.0833
971.00,0.0799
970.00,0.0763
969.00,0.0727
968.00,0.0691
967.00,0.0654
966.00,0.0617
965.00,0.0581
964.00,0.0546
963.00,0.0512
962.00,0.0481
961.00,0.0451
960.00,0.0423
959.00,0.0397
958.00,0.0373
957.00,0.0351
956.00,0.0331
955.00,0.0313
954.00,0.0296
953.00,0.0281
952.00,0.0269
951.00,0.0258
950.00,0.0249
949.00,0.0242
948.00,0.0237
947.00,0.0234
946.00,0.0234
945.00,0.0236
944.00,0.0240
943.00,0.0245
942.00,0.0252
941.00,0.0260
940.00,0.0269
939.00,0.0278
938.00,0.0286
937.00,0.0292
936.00,0.0296
935.00,0.0298
934.00,0.0297
933.00,0.0293
932.00,0.0287
931.00,0.0277
930.00,0.0264
929.00,0.0248
928.00,0.0231
927.00,0.0213
926.00,0.0194
925.00,0.0176
924.00,0.0159
923.00,0.0144
922.00,0.0130
921.00,0.0117
920.00,0.0107
919.00,0.0097
918.00,0.0090
917.00,0.0084
916.00,0.0081
915.00,0.0078
914.00,0.0078
913.00,0.0078
912.00,0.0080
911.00,0.0082
910.00,0.0084
909.00,0.0087
908.00,0.0090
907.00,0.0092
906.00,0.0093
905.00,0.0093
904.00,0.0092
903.00,0.0090
902.00,0.0088
901.00,0.0087
900.00,0.0085
899.00,0.0083
898.00,0.0081
897.00,0.0080
896.00,0.0079
895.00,0.0080
894.00,0.0081
893.00,0.0082
892.00,0.0084
891.00,0.0085
890.00,0.0087
889.00,0.0088
888.00,0.0090
887.00,0.0090
886.00,0.0089
885.00,0.0087
884.00,0.0083
883.00,0.0078
882.00,0.0073
881.00,0.0068
880.00,0.0064
879.00,0.0060
878.00,0.0057
877.00,0.0055
876.00,0.0055
875.00,0.0055
874.00,0.0056
873.00,0.0057
872.00,0.0058
871.00,0.0058
870.00,0.0058
869.00,0.0057
868.00,0.0056
867.00,0.0056
866.00,0.0056
865.00,0.0058
864.00,0.0060
863.00,0.0063
862.00,0.0067
861.00,0.0072
860.00,0.0077
859.00,0.0083
858.00,0.0090
857.00,0.0097
856.00,0.0107
855.00,0.0117
854.00,0.0129
853.00,0.0142
852.00,0.0156
851.00,0.0169
850.00,0.0182
849.00,0.0194
848.00,0.0206
847.00,0.0218
846.00,0.0229
845.00,0.0241
844.00,0.0254
843.00,0.0267
842.00,0.0281
841.00,0.0295
840.00,0.0309
839.00,0.0323
838.00,0.0337
837.00,0.0354
836.00,0.0370
835.00,0.0386
834.00,0.0398
833.00,0.0407
832.00,0.0414
831.00,0.0418
830.00,0.0420
829.00,0.0419
828.00,0.0414
827.00,0.0406
826.00,0.0395
825.00,0.0385
824.00,0.0374
823.00,0.0363
822.00,0.0351
821.00,0.0340
820.00,0.0330
819.00,0.0319
818.00,0.0309
817.00,0.0301
816.00,0.0292
815.00,0.0284
814.00,0.0273
813.00,0.0263
812.00,0.0252
811.00,0.0241
810.00,0.0230
809.00,0.0219
808.00,0.0207
807.00,0.0195
806.00,0.0182
805.00,0.0169
804.00,0.0156
803.00,0.0144
802.00,0.0133
801.00,0.0122
800.00,0.0114
799.00,0.0108
798.00,0.0102
797.00,0.0099
796.00,0.0096
795.00,0.0094
794.00,0.0092
793.00,0.0091
792.00,0.0090
791.00,0.0090
790.00,0.0091
789.00,0.0094
788.00,0.0098
787.00,0.0103
786.00,0.0106
785.00,0.0109
784.00,0.0111
783.00,0.0115
782.00,0.0119
781.00,0.0123
780.00,0.0125
779.00,0.0128
778.00,0.0130
777.00,0.0134
776.00,0.0138
775.00,0.0142
774.00,0.0144
773.00,0.0145
772.00,0.0145
771.00,0.0145
770.00,0.0142
769.00,0.0139
768.00,0.0133
767.00,0.0127
766.00,0.0121
765.00,0.0116
764.00,0.0113
763.00,0.0110
762.00,0.0106
761.00,0.0102
760.00,0.0098
759.00,0.0095
758.00,0.0093
757.00,0.0091
756.00,0.0090
755.00,0.0090
754.00,0.0091
753.00,0.0095
752.00,0.0100
751.00,0.0105
750.00,0.0109
749.00,0.0112
748.00,0.0114
747.00,0.0116
746.00,0.0117
745.00,0.0118
744.00,0.0120
743.00,0.0120
742.00,0.0120
741.00,0.0119
740.00,0.0119
739.00,0.0119
738.00,0.0120
737.00,0.0122
736.00,0.0125
735.00,0.0127
734.00,0.0128
733.00,0.0129
732.00,0.0130
731.00,0.0130
730.00,0.0132
729.00,0.0134
728.00,0.0136
727.00,0.0139
726.00,0.0143
725.00,0.0146
724.00,0.0148
723.00,0.0150
722.00,0.0149
721.00,0.0148
720.00,0.0148
719.00,0.0148
718.00,0.0147
717.00,0.0147
716.00,0.0146
715.00,0.0144
714.00,0.0141
713.00,0.0139
712.00,0.0137
711.00,0.0135
710.00,0.0133
709.00,0.0132
708.00,0.0134
707.00,0.0137
706.00,0.0140
705.00,0.0145
704.00,0.0150
703.00,0.0155
702.00,0.0158
701.00,0.0161
700.00,0.0165
699.00,0.0168
698.00,0.0169
697.00,0.0169
696.00,0.0167
695.00,0.0164
694.00,0.0159
693.00,0.0153
692.00,0.0147
691.00,0.0140
690.00,0.0134
689.00,0.0129
688.00,0.0123
687.00,0.0115
686.00,0.0106
685.00,0.0099
684.00,0.0094
683.00,0.0089
682.00,0.0086
681.00,0.0082
680.00,0.0080
679.00,0.0078
678.00,0.0077
677.00,0.0078
676.00,0.0081
675.00,0.0083
674.00,0.0085
673.00,0.0087
672.00,0.0087
671.00,0.0084
670.00,0.0078
669.00,0.0079
668.00,0.0094
667.00,0.0112
666.00,0.0117
665.00,0.0113
664.00,0.0107
663.00,0.0105
662.00,0.0106
661.00,0.0107
660.00,0.0110
659.00,0.0111
658.00,0.0111
657.00,0.0111
656.00,0.0112
655.00,0.0111
654.00,0.0107
653.00,0.0102
652.00,0.0097
651.00,0.0091
650.00,0.0085
649.00,0.0080
648.00,0.0076
647.00,0.0073
646.00,0.0070
645.00,0.0068
644.00,0.0066
643.00,0.0062
642.00,0.0057
641.00,0.0053
640.00,0.0051
639.00,0.0052
638.00,0.0055
637.00,0.0060
636.00,0.0067
635.00,0.0074
634.00,0.0083
633.00,0.0094
632.00,0.0111
631.00,0.0131
630.00,0.0152
629.00,0.0174
628.00,0.0198
627.00,0.0224
626.00,0.0251
625.00,0.0277
624.00,0.0303
623.00,0.0328
622.00,0.0350
621.00,0.0373
620.00,0.0399
619.00,0.0424
618.00,0.0444
617.00,0.0459
616.00,0.0470
615.00,0.0477
614.00,0.0480
613.00,0.0483
612.00,0.0485
611.00,0.0484
610.00,0.0479
609.00,0.0470
608.00,0.0459
607.00,0.0447
606.00,0.0435
605.00,0.0430
604.00,0.0432
603.00,0.0438
602.00,0.0443
601.00,0.0447
600.00,0.0451
599.00,0.0454
598.00,0.0453
597.00,0.0449
596.00,0.0447
595.00,0.0448
594.00,0.0450
593.00,0.0456
592.00,0.0466
591.00,0.0477
590.00,0.0487
589.00,0.0498
588.00,0.0515
587.00,0.0537
586.00,0.0561
585.00,0.0584
584.00,0.0606
583.00,0.0624
582.00,0.0636
581.00,0.0646
580.00,0.0655
579.00,0.0662
578.00,0.0662
577.00,0.0661
576.00,0.0660
575.00,0.0657
574.00,0.0648
573.00,0.0632
572.00,0.0612
571.00,0.0591
570.00,0.0571
569.00,0.0555
568.00,0.0542
567.00,0.0528
566.00,0.0511
565.00,0.0494
564.00,0.0479
563.00,0.0462
562.00,0.0446
561.00,0.0436
560.00,0.0435
559.00,0.0435
558.00,0.0429
557.00,0.0417
556.00,0.0403
555.00,0.0388
554.00,0.0374
553.00,0.0365
552.00,0.0363
551.00,0.0365
550.00,0.0365
549.00,0.0361
548.00,0.0354
547.00,0.0345
546.00,0.0335
545.00,0.0329
544.00,0.0329
543.00,0.0332
542.00,0.0334
541.00,0.0336
540.00,0.0337
539.00,0.0332
538.00,0.0318
537.00,0.0303
536.00,0.0295
535.00,0.0294
534.00,0.0296
533.00,0.0297
532.00,0.0298
531.00,0.0294
530.00,0.0283
529.00,0.0271
528.00,0.0263
527.00,0.0259
526.00,0.0258
525.00,0.0258
524.00,0.0260
523.00,0.0257
522.00,0.0246
521.00,0.0232
520.00,0.0222
519.00,0.0215
518.00,0.0209
517.00,0.0208
516.00,0.0211
515.00,0.0213
514.00,0.0207
513.00,0.0193
512.00,0.0176
511.00,0.0157
510.00,0.0141
509.00,0.0131
508.00,0.0130
507.00,0.0134
506.00,0.0137
505.00,0.0137
504.00,0.0132
503.00,0.0120
502.00,0.0104
501.00,0.0096
500.00,0.0098
499.00,0.0104
498.00,0.0105
497.00,0.0105
496.00,0.0107
495.00,0.0108
494.00,0.0107
493.00,0.0106
492.00,0.0113
491.00,0.0124
490.00,0.0134
489.00,0.0143
488.00,0.0153
487.00,0.0159
486.00,0.0156
485.00,0.0147
484.00,0.0142
483.00,0.0143
482.00,0.0151
481.00,0.0168
480.00,0.0189
479.00,0.0201
478.00,0.0194
477.00,0.0178
476.00,0.0162
475.00,0.0149
474.00,0.0137
473.00,0.0137
472.00,0.0152
471.00,0.0168
470.00,0.0167
469.00,0.0155
468.00,0.0145
467.00,0.0144
466.00,0.0147
465.00,0.0153
464.00,0.0161
463.00,0.0162
462.00,0.0153
461.00,0.0138
460.00,0.0127
459.00,0.0120
458.00,0.0119
457.00,0.0128
456.00,0.0146
455.00,0.0153
454.00,0.0140
453.00,0.0117
452.00,0.0094
451.00,0.0071
450.00,0.0043
