Created as New Dataset,Sample 007 By Administrator Date Monday, June 09 2025
cm-1,A
4000.00,0.0068
3999.00,0.0068
3998.00,0.0068
3997.00,0.0068
3996.00,0.0068
3995.00,0.0068
3994.00,0.0068
3993.00,0.0068
3992.00,0.0068
3991.00,0.0068
3990.00,0.0068
3989.00,0.0069
3988.00,0.0069
3987.00,0.0069
3986.00,0.0069
3985.00,0.0069
3984.00,0.0068
3983.00,0.0068
3982.00,0.0068
3981.00,0.0068
3980.00,0.0068
3979.00,0.0069
3978.00,0.0069
3977.00,0.0070
3976.00,0.0070
3975.00,0.0070
3974.00,0.0070
3973.00,0.0069
3972.00,0.0069
3971.00,0.0069
3970.00,0.0068
3969.00,0.0068
3968.00,0.0068
3967.00,0.0068
3966.00,0.0069
3965.00,0.0069
3964.00,0.0069
3963.00,0.0069
3962.00,0.0070
3961.00,0.0070
3960.00,0.0070
3959.00,0.0070
3958.00,0.0071
3957.00,0.0071
3956.00,0.0071
3955.00,0.0070
3954.00,0.0070
3953.00,0.0071
3952.00,0.0071
3951.00,0.0072
3950.00,0.0072
3949.00,0.0072
3948.00,0.0071
3947.00,0.0072
3946.00,0.0072
3945.00,0.0072
3944.00,0.0072
3943.00,0.0071
3942.00,0.0070
3941.00,0.0070
3940.00,0.0070
3939.00,0.0070
3938.00,0.0070
3937.00,0.0070
3936.00,0.0071
3935.00,0.0072
3934.00,0.0072
3933.00,0.0073
3932.00,0.0072
3931.00,0.0071
3930.00,0.0071
3929.00,0.0071
3928.00,0.0071
3927.00,0.0071
3926.00,0.0071
3925.00,0.0070
3924.00,0.0070
3923.00,0.0070
3922.00,0.0071
3921.00,0.0072
3920.00,0.0073
3919.00,0.0073
3918.00,0.0073
3917.00,0.0073
3916.00,0.0072
3915.00,0.0071
3914.00,0.0070
3913.00,0.0069
3912.00,0.0068
3911.00,0.0068
3910.00,0.0068
3909.00,0.0068
3908.00,0.0069
3907.00,0.0070
3906.00,0.0071
3905.00,0.0073
3904.00,0.0074
3903.00,0.0076
3902.00,0.0078
3901.00,0.0079
3900.00,0.0079
3899.00,0.0078
3898.00,0.0076
3897.00,0.0075
3896.00,0.0074
3895.00,0.0073
3894.00,0.0072
3893.00,0.0072
3892.00,0.0071
3891.00,0.0070
3890.00,0.0070
3889.00,0.0071
3888.00,0.0072
3887.00,0.0074
3886.00,0.0074
3885.00,0.0074
3884.00,0.0073
3883.00,0.0074
3882.00,0.0075
3881.00,0.0075
3880.00,0.0074
3879.00,0.0073
3878.00,0.0073
3877.00,0.0075
3876.00,0.0076
3875.00,0.0076
3874.00,0.0075
3873.00,0.0074
3872.00,0.0075
3871.00,0.0076
3870.00,0.0077
3869.00,0.0076
3868.00,0.0075
3867.00,0.0076
3866.00,0.0077
3865.00,0.0078
3864.00,0.0077
3863.00,0.0075
3862.00,0.0075
3861.00,0.0075
3860.00,0.0075
3859.00,0.0074
3858.00,0.0071
3857.00,0.0068
3856.00,0.0067
3855.00,0.0068
3854.00,0.0070
3853.00,0.0072
3852.00,0.0074
3851.00,0.0076
3850.00,0.0077
3849.00,0.0077
3848.00,0.0076
3847.00,0.0075
3846.00,0.0074
3845.00,0.0073
3844.00,0.0074
3843.00,0.0074
3842.00,0.0075
3841.00,0.0075
3840.00,0.0076
3839.00,0.0077
3838.00,0.0077
3837.00,0.0077
3836.00,0.0077
3835.00,0.0077
3834.00,0.0077
3833.00,0.0076
3832.00,0.0076
3831.00,0.0075
3830.00,0.0075
3829.00,0.0075
3828.00,0.0075
3827.00,0.0074
3826.00,0.0073
3825.00,0.0072
3824.00,0.0072
3823.00,0.0075
3822.00,0.0077
3821.00,0.0077
3820.00,0.0076
3819.00,0.0076
3818.00,0.0077
3817.00,0.0078
3816.00,0.0077
3815.00,0.0075
3814.00,0.0073
3813.00,0.0072
3812.00,0.0071
3811.00,0.0070
3810.00,0.0069
3809.00,0.0069
3808.00,0.0070
3807.00,0.0070
3806.00,0.0071
3805.00,0.0072
3804.00,0.0074
3803.00,0.0076
3802.00,0.0077
3801.00,0.0077
3800.00,0.0077
3799.00,0.0077
3798.00,0.0077
3797.00,0.0077
3796.00,0.0075
3795.00,0.0072
3794.00,0.0071
3793.00,0.0070
3792.00,0.0069
3791.00,0.0068
3790.00,0.0067
3789.00,0.0067
3788.00,0.0068
3787.00,0.0068
3786.00,0.0069
3785.00,0.0069
3784.00,0.0068
3783.00,0.0069
3782.00,0.0069
3781.00,0.0070
3780.00,0.0071
3779.00,0.0070
3778.00,0.0069
3777.00,0.0069
3776.00,0.0069
3775.00,0.0070
3774.00,0.0070
3773.00,0.0070
3772.00,0.0070
3771.00,0.0071
3770.00,0.0071
3769.00,0.0072
3768.00,0.0073
3767.00,0.0074
3766.00,0.0075
3765.00,0.0074
3764.00,0.0074
3763.00,0.0074
3762.00,0.0075
3761.00,0.0077
3760.00,0.0077
3759.00,0.0077
3758.00,0.0078
3757.00,0.0079
3756.00,0.0080
3755.00,0.0080
3754.00,0.0082
3753.00,0.0083
3752.00,0.0084
3751.00,0.0085
3750.00,0.0086
3749.00,0.0088
3748.00,0.0088
3747.00,0.0088
3746.00,0.0089
3745.00,0.0089
3744.00,0.0089
3743.00,0.0087
3742.00,0.0087
3741.00,0.0087
3740.00,0.0088
3739.00,0.0090
3738.00,0.0091
3737.00,0.0093
3736.00,0.0093
3735.00,0.0091
3734.00,0.0090
3733.00,0.0089
3732.00,0.0089
3731.00,0.0088
3730.00,0.0087
3729.00,0.0086
3728.00,0.0087
3727.00,0.0087
3726.00,0.0086
3725.00,0.0086
3724.00,0.0086
3723.00,0.0086
3722.00,0.0085
3721.00,0.0084
3720.00,0.0084
3719.00,0.0083
3718.00,0.0083
3717.00,0.0083
3716.00,0.0084
3715.00,0.0085
3714.00,0.0086
3713.00,0.0089
3712.00,0.0090
3711.00,0.0091
3710.00,0.0092
3709.00,0.0092
3708.00,0.0092
3707.00,0.0092
3706.00,0.0091
3705.00,0.0091
3704.00,0.0090
3703.00,0.0090
3702.00,0.0090
3701.00,0.0089
3700.00,0.0090
3699.00,0.0090
3698.00,0.0091
3697.00,0.0092
3696.00,0.0093
3695.00,0.0094
3694.00,0.0096
3693.00,0.0098
3692.00,0.0100
3691.00,0.0101
3690.00,0.0103
3689.00,0.0105
3688.00,0.0108
3687.00,0.0110
3686.00,0.0111
3685.00,0.0112
3684.00,0.0112
3683.00,0.0113
3682.00,0.0114
3681.00,0.0116
3680.00,0.0117
3679.00,0.0118
3678.00,0.0121
3677.00,0.0125
3676.00,0.0130
3675.00,0.0134
3674.00,0.0137
3673.00,0.0141
3672.00,0.0146
3671.00,0.0150
3670.00,0.0152
3669.00,0.0152
3668.00,0.0153
3667.00,0.0154
3666.00,0.0156
3665.00,0.0158
3664.00,0.0159
3663.00,0.0161
3662.00,0.0163
3661.00,0.0165
3660.00,0.0168
3659.00,0.0172
3658.00,0.0176
3657.00,0.0182
3656.00,0.0188
3655.00,0.0194
3654.00,0.0199
3653.00,0.0205
3652.00,0.0212
3651.00,0.0220
3650.00,0.0227
3649.00,0.0236
3648.00,0.0243
3647.00,0.0249
3646.00,0.0253
3645.00,0.0256
3644.00,0.0258
3643.00,0.0261
3642.00,0.0263
3641.00,0.0266
3640.00,0.0271
3639.00,0.0276
3638.00,0.0281
3637.00,0.0287
3636.00,0.0293
3635.00,0.0299
3634.00,0.0305
3633.00,0.0310
3632.00,0.0315
3631.00,0.0323
3630.00,0.0332
3629.00,0.0342
3628.00,0.0352
3627.00,0.0361
3626.00,0.0369
3625.00,0.0375
3624.00,0.0380
3623.00,0.0384
3622.00,0.0389
3621.00,0.0395
3620.00,0.0402
3619.00,0.0411
3618.00,0.0419
3617.00,0.0428
3616.00,0.0436
3615.00,0.0444
3614.00,0.0450
3613.00,0.0456
3612.00,0.0463
3611.00,0.0470
3610.00,0.0478
3609.00,0.0485
3608.00,0.0492
3607.00,0.0498
3606.00,0.0504
3605.00,0.0510
3604.00,0.0516
3603.00,0.0522
3602.00,0.0528
3601.00,0.0534
3600.00,0.0540
3599.00,0.0547
3598.00,0.0554
3597.00,0.0562
3596.00,0.0569
3595.00,0.0576
3594.00,0.0583
3593.00,0.0590
3592.00,0.0596
3591.00,0.0602
3590.00,0.0609
3589.00,0.0617
3588.00,0.0626
3587.00,0.0635
3586.00,0.0644
3585.00,0.0652
3584.00,0.0659
3583.00,0.0664
3582.00,0.0669
3581.00,0.0673
3580.00,0.0678
3579.00,0.0683
3578.00,0.0690
3577.00,0.0696
3576.00,0.0704
3575.00,0.0711
3574.00,0.0717
3573.00,0.0724
3572.00,0.0730
3571.00,0.0737
3570.00,0.0744
3569.00,0.0752
3568.00,0.0761
3567.00,0.0771
3566.00,0.0780
3565.00,0.0789
3564.00,0.0797
3563.00,0.0803
3562.00,0.0807
3561.00,0.0812
3560.00,0.0816
3559.00,0.0821
3558.00,0.0827
3557.00,0.0833
3556.00,0.0839
3555.00,0.0846
3554.00,0.0852
3553.00,0.0859
3552.00,0.0866
3551.00,0.0873
3550.00,0.0881
3549.00,0.0888
3548.00,0.0896
3547.00,0.0903
3546.00,0.0910
3545.00,0.0917
3544.00,0.0924
3543.00,0.0931
3542.00,0.0937
3541.00,0.0943
3540.00,0.0948
3539.00,0.0954
3538.00,0.0959
3537.00,0.0965
3536.00,0.0971
3535.00,0.0977
3534.00,0.0983
3533.00,0.0990
3532.00,0.0996
3531.00,0.1002
3530.00,0.1007
3529.00,0.1014
3528.00,0.1021
3527.00,0.1029
3526.00,0.1037
3525.00,0.1044
3524.00,0.1051
3523.00,0.1057
3522.00,0.1062
3521.00,0.1067
3520.00,0.1072
3519.00,0.1078
3518.00,0.1083
3517.00,0.1089
3516.00,0.1095
3515.00,0.1101
3514.00,0.1107
3513.00,0.1113
3512.00,0.1119
3511.00,0.1125
3510.00,0.1131
3509.00,0.1137
3508.00,0.1144
3507.00,0.1151
3506.00,0.1158
3505.00,0.1165
3504.00,0.1171
3503.00,0.1178
3502.00,0.1184
3501.00,0.1190
3500.00,0.1196
3499.00,0.1201
3498.00,0.1207
3497.00,0.1212
3496.00,0.1218
3495.00,0.1223
3494.00,0.1229
3493.00,0.1234
3492.00,0.1240
3491.00,0.1245
3490.00,0.1251
3489.00,0.1257
3488.00,0.1263
3487.00,0.1270
3486.00,0.1275
3485.00,0.1281
3484.00,0.1287
3483.00,0.1294
3482.00,0.1300
3481.00,0.1307
3480.00,0.1313
3479.00,0.1319
3478.00,0.1324
3477.00,0.1329
3476.00,0.1334
3475.00,0.1339
3474.00,0.1344
3473.00,0.1350
3472.00,0.1357
3471.00,0.1363
3470.00,0.1370
3469.00,0.1376
3468.00,0.1381
3467.00,0.1386
3466.00,0.1391
3465.00,0.1396
3464.00,0.1402
3463.00,0.1407
3462.00,0.1413
3461.00,0.1419
3460.00,0.1426
3459.00,0.1431
3458.00,0.1436
3457.00,0.1441
3456.00,0.1445
3455.00,0.1450
3454.00,0.1455
3453.00,0.1461
3452.00,0.1466
3451.00,0.1471
3450.00,0.1476
3449.00,0.1481
3448.00,0.1487
3447.00,0.1493
3446.00,0.1499
3445.00,0.1504
3444.00,0.1509
3443.00,0.1514
3442.00,0.1519
3441.00,0.1525
3440.00,0.1530
3439.00,0.1536
3438.00,0.1542
3437.00,0.1547
3436.00,0.1551
3435.00,0.1556
3434.00,0.1560
3433.00,0.1564
3432.00,0.1569
3431.00,0.1573
3430.00,0.1578
3429.00,0.1583
3428.00,0.1587
3427.00,0.1592
3426.00,0.1596
3425.00,0.1600
3424.00,0.1604
3423.00,0.1609
3422.00,0.1613
3421.00,0.1618
3420.00,0.1622
3419.00,0.1627
3418.00,0.1631
3417.00,0.1636
3416.00,0.1640
3415.00,0.1644
3414.00,0.1648
3413.00,0.1652
3412.00,0.1656
3411.00,0.1660
3410.00,0.1663
3409.00,0.1667
3408.00,0.1670
3407.00,0.1673
3406.00,0.1676
3405.00,0.1680
3404.00,0.1684
3403.00,0.1687
3402.00,0.1690
3401.00,0.1693
3400.00,0.1696
3399.00,0.1699
3398.00,0.1701
3397.00,0.1704
3396.00,0.1707
3395.00,0.1710
3394.00,0.1712
3393.00,0.1715
3392.00,0.1717
3391.00,0.1720
3390.00,0.1721
3389.00,0.1723
3388.00,0.1725
3387.00,0.1726
3386.00,0.1728
3385.00,0.1730
3384.00,0.1732
3383.00,0.1734
3382.00,0.1736
3381.00,0.1738
3380.00,0.1739
3379.00,0.1740
3378.00,0.1741
3377.00,0.1742
3376.00,0.1743
3375.00,0.1744
3374.00,0.1745
3373.00,0.1747
3372.00,0.1748
3371.00,0.1750
3370.00,0.1751
3369.00,0.1752
3368.00,0.1752
3367.00,0.1753
3366.00,0.1753
3365.00,0.1753
3364.00,0.1753
3363.00,0.1754
3362.00,0.1755
3361.00,0.1755
3360.00,0.1755
3359.00,0.1755
3358.00,0.1754
3357.00,0.1755
3356.00,0.1755
3355.00,0.1755
3354.00,0.1755
3353.00,0.1755
3352.00,0.1755
3351.00,0.1754
3350.00,0.1753
3349.00,0.1752
3348.00,0.1751
3347.00,0.1750
3346.00,0.1749
3345.00,0.1749
3344.00,0.1749
3343.00,0.1749
3342.00,0.1748
3341.00,0.1748
3340.00,0.1747
3339.00,0.1746
3338.00,0.1744
3337.00,0.1743
3336.00,0.1742
3335.00,0.1740
3334.00,0.1739
3333.00,0.1738
3332.00,0.1736
3331.00,0.1734
3330.00,0.1733
3329.00,0.1732
3328.00,0.1730
3327.00,0.1729
3326.00,0.1728
3325.00,0.1727
3324.00,0.1726
3323.00,0.1725
3322.00,0.1724
3321.00,0.1722
3320.00,0.1721
3319.00,0.1720
3318.00,0.1718
3317.00,0.1717
3316.00,0.1715
3315.00,0.1713
3314.00,0.1712
3313.00,0.1711
3312.00,0.1710
3311.00,0.1709
3310.00,0.1708
3309.00,0.1707
3308.00,0.1705
3307.00,0.1704
3306.00,0.1703
3305.00,0.1703
3304.00,0.1702
3303.00,0.1700
3302.00,0.1699
3301.00,0.1697
3300.00,0.1695
3299.00,0.1694
3298.00,0.1692
3297.00,0.1691
3296.00,0.1690
3295.00,0.1688
3294.00,0.1687
3293.00,0.1685
3292.00,0.1684
3291.00,0.1683
3290.00,0.1681
3289.00,0.1680
3288.00,0.1678
3287.00,0.1676
3286.00,0.1674
3285.00,0.1671
3284.00,0.1669
3283.00,0.1666
3282.00,0.1664
3281.00,0.1661
3280.00,0.1659
3279.00,0.1657
3278.00,0.1654
3277.00,0.1652
3276.00,0.1650
3275.00,0.1647
3274.00,0.1645
3273.00,0.1642
3272.00,0.1639
3271.00,0.1636
3270.00,0.1632
3269.00,0.1629
3268.00,0.1625
3267.00,0.1621
3266.00,0.1618
3265.00,0.1614
3264.00,0.1611
3263.00,0.1607
3262.00,0.1604
3261.00,0.1600
3260.00,0.1596
3259.00,0.1591
3258.00,0.1587
3257.00,0.1583
3256.00,0.1578
3255.00,0.1574
3254.00,0.1570
3253.00,0.1565
3252.00,0.1561
3251.00,0.1557
3250.00,0.1553
3249.00,0.1548
3248.00,0.1544
3247.00,0.1540
3246.00,0.1536
3245.00,0.1531
3244.00,0.1527
3243.00,0.1523
3242.00,0.1518
3241.00,0.1513
3240.00,0.1509
3239.00,0.1504
3238.00,0.1499
3237.00,0.1495
3236.00,0.1490
3235.00,0.1485
3234.00,0.1481
3233.00,0.1476
3232.00,0.1472
3231.00,0.1467
3230.00,0.1462
3229.00,0.1457
3228.00,0.1452
3227.00,0.1446
3226.00,0.1441
3225.00,0.1436
3224.00,0.1431
3223.00,0.1426
3222.00,0.1421
3221.00,0.1416
3220.00,0.1411
3219.00,0.1406
3218.00,0.1400
3217.00,0.1395
3216.00,0.1390
3215.00,0.1384
3214.00,0.1379
3213.00,0.1374
3212.00,0.1369
3211.00,0.1363
3210.00,0.1358
3209.00,0.1352
3208.00,0.1346
3207.00,0.1340
3206.00,0.1334
3205.00,0.1329
3204.00,0.1324
3203.00,0.1318
3202.00,0.1312
3201.00,0.1306
3200.00,0.1300
3199.00,0.1294
3198.00,0.1288
3197.00,0.1283
3196.00,0.1277
3195.00,0.1271
3194.00,0.1265
3193.00,0.1258
3192.00,0.1252
3191.00,0.1245
3190.00,0.1239
3189.00,0.1233
3188.00,0.1228
3187.00,0.1221
3186.00,0.1215
3185.00,0.1209
3184.00,0.1203
3183.00,0.1196
3182.00,0.1190
3181.00,0.1184
3180.00,0.1178
3179.00,0.1172
3178.00,0.1165
3177.00,0.1159
3176.00,0.1153
3175.00,0.1147
3174.00,0.1140
3173.00,0.1134
3172.00,0.1127
3171.00,0.1121
3170.00,0.1114
3169.00,0.1107
3168.00,0.1101
3167.00,0.1094
3166.00,0.1088
3165.00,0.1081
3164.00,0.1075
3163.00,0.1069
3162.00,0.1063
3161.00,0.1056
3160.00,0.1050
3159.00,0.1044
3158.00,0.1037
3157.00,0.1031
3156.00,0.1025
3155.00,0.1019
3154.00,0.1013
3153.00,0.1007
3152.00,0.1001
3151.00,0.0995
3150.00,0.0989
3149.00,0.0984
3148.00,0.0978
3147.00,0.0972
3146.00,0.0966
3145.00,0.0960
3144.00,0.0954
3143.00,0.0948
3142.00,0.0942
3141.00,0.0936
3140.00,0.0930
3139.00,0.0925
3138.00,0.0919
3137.00,0.0914
3136.00,0.0908
3135.00,0.0903
3134.00,0.0898
3133.00,0.0893
3132.00,0.0887
3131.00,0.0882
3130.00,0.0877
3129.00,0.0872
3128.00,0.0867
3127.00,0.0862
3126.00,0.0857
3125.00,0.0852
3124.00,0.0847
3123.00,0.0842
3122.00,0.0836
3121.00,0.0831
3120.00,0.0826
3119.00,0.0821
3118.00,0.0817
3117.00,0.0812
3116.00,0.0808
3115.00,0.0804
3114.00,0.0800
3113.00,0.0796
3112.00,0.0792
3111.00,0.0787
3110.00,0.0783
3109.00,0.0778
3108.00,0.0774
3107.00,0.0770
3106.00,0.0767
3105.00,0.0763
3104.00,0.0759
3103.00,0.0755
3102.00,0.0751
3101.00,0.0747
3100.00,0.0743
3099.00,0.0739
3098.00,0.0735
3097.00,0.0732
3096.00,0.0728
3095.00,0.0725
3094.00,0.0721
3093.00,0.0717
3092.00,0.0714
3091.00,0.0710
3090.00,0.0707
3089.00,0.0703
3088.00,0.0700
3087.00,0.0696
3086.00,0.0693
3085.00,0.0690
3084.00,0.0686
3083.00,0.0683
3082.00,0.0680
3081.00,0.0677
3080.00,0.0674
3079.00,0.0671
3078.00,0.0668
3077.00,0.0665
3076.00,0.0662
3075.00,0.0659
3074.00,0.0656
3073.00,0.0653
3072.00,0.0649
3071.00,0.0646
3070.00,0.0643
3069.00,0.0639
3068.00,0.0636
3067.00,0.0633
3066.00,0.0630
3065.00,0.0627
3064.00,0.0623
3063.00,0.0620
3062.00,0.0617
3061.00,0.0614
3060.00,0.0610
3059.00,0.0607
3058.00,0.0603
3057.00,0.0600
3056.00,0.0596
3055.00,0.0592
3054.00,0.0589
3053.00,0.0585
3052.00,0.0581
3051.00,0.0578
3050.00,0.0575
3049.00,0.0572
3048.00,0.0569
3047.00,0.0566
3046.00,0.0562
3045.00,0.0559
3044.00,0.0555
3043.00,0.0551
3042.00,0.0548
3041.00,0.0545
3040.00,0.0542
3039.00,0.0538
3038.00,0.0535
3037.00,0.0533
3036.00,0.0530
3035.00,0.0527
3034.00,0.0525
3033.00,0.0522
3032.00,0.0520
3031.00,0.0517
3030.00,0.0515
3029.00,0.0512
3028.00,0.0510
3027.00,0.0507
3026.00,0.0504
3025.00,0.0502
3024.00,0.0499
3023.00,0.0497
3022.00,0.0495
3021.00,0.0493
3020.00,0.0491
3019.00,0.0489
3018.00,0.0488
3017.00,0.0486
3016.00,0.0484
3015.00,0.0483
3014.00,0.0481
3013.00,0.0479
3012.00,0.0477
3011.00,0.0476
3010.00,0.0474
3009.00,0.0472
3008.00,0.0470
3007.00,0.0467
3006.00,0.0466
3005.00,0.0464
3004.00,0.0462
3003.00,0.0460
3002.00,0.0459
3001.00,0.0457
3000.00,0.0455
2999.00,0.0454
2998.00,0.0453
2997.00,0.0453
2996.00,0.0452
2995.00,0.0451
2994.00,0.0451
2993.00,0.0451
2992.00,0.0451
2991.00,0.0452
2990.00,0.0452
2989.00,0.0452
2988.00,0.0453
2987.00,0.0454
2986.00,0.0455
2985.00,0.0456
2984.00,0.0458
2983.00,0.0459
2982.00,0.0461
2981.00,0.0462
2980.00,0.0464
2979.00,0.0466
2978.00,0.0468
2977.00,0.0470
2976.00,0.0472
2975.00,0.0474
2974.00,0.0476
2973.00,0.0478
2972.00,0.0481
2971.00,0.0483
2970.00,0.0485
2969.00,0.0487
2968.00,0.0489
2967.00,0.0491
2966.00,0.0493
2965.00,0.0494
2964.00,0.0496
2963.00,0.0497
2962.00,0.0497
2961.00,0.0498
2960.00,0.0498
2959.00,0.0497
2958.00,0.0497
2957.00,0.0496
2956.00,0.0495
2955.00,0.0493
2954.00,0.0491
2953.00,0.0490
2952.00,0.0488
2951.00,0.0487
2950.00,0.0486
2949.00,0.0485
2948.00,0.0484
2947.00,0.0484
2946.00,0.0483
2945.00,0.0484
2944.00,0.0484
2943.00,0.0485
2942.00,0.0486
2941.00,0.0487
2940.00,0.0488
2939.00,0.0490
2938.00,0.0491
2937.00,0.0492
2936.00,0.0493
2935.00,0.0494
2934.00,0.0494
2933.00,0.0494
2932.00,0.0494
2931.00,0.0495
2930.00,0.0495
2929.00,0.0495
2928.00,0.0495
2927.00,0.0495
2926.00,0.0495
2925.00,0.0494
2924.00,0.0493
2923.00,0.0492
2922.00,0.0490
2921.00,0.0487
2920.00,0.0484
2919.00,0.0481
2918.00,0.0477
2917.00,0.0473
2916.00,0.0468
2915.00,0.0464
2914.00,0.0460
2913.00,0.0456
2912.00,0.0453
2911.00,0.0449
2910.00,0.0445
2909.00,0.0442
2908.00,0.0439
2907.00,0.0436
2906.00,0.0434
2905.00,0.0431
2904.00,0.0429
2903.00,0.0426
2902.00,0.0423
2901.00,0.0421
2900.00,0.0418
2899.00,0.0415
2898.00,0.0413
2897.00,0.0410
2896.00,0.0407
2895.00,0.0405
2894.00,0.0402
2893.00,0.0399
2892.00,0.0397
2891.00,0.0395
2890.00,0.0392
2889.00,0.0390
2888.00,0.0388
2887.00,0.0385
2886.00,0.0383
2885.00,0.0381
2884.00,0.0379
2883.00,0.0377
2882.00,0.0375
2881.00,0.0373
2880.00,0.0372
2879.00,0.0371
2878.00,0.0369
2877.00,0.0368
2876.00,0.0366
2875.00,0.0364
2874.00,0.0362
2873.00,0.0360
2872.00,0.0358
2871.00,0.0356
2870.00,0.0353
2869.00,0.0350
2868.00,0.0347
2867.00,0.0344
2866.00,0.0341
2865.00,0.0339
2864.00,0.0337
2863.00,0.0335
2862.00,0.0334
2861.00,0.0333
2860.00,0.0332
2859.00,0.0332
2858.00,0.0332
2857.00,0.0332
2856.00,0.0332
2855.00,0.0332
2854.00,0.0331
2853.00,0.0330
2852.00,0.0329
2851.00,0.0326
2850.00,0.0322
2849.00,0.0318
2848.00,0.0313
2847.00,0.0308
2846.00,0.0303
2845.00,0.0299
2844.00,0.0295
2843.00,0.0291
2842.00,0.0287
2841.00,0.0284
2840.00,0.0281
2839.00,0.0278
2838.00,0.0276
2837.00,0.0273
2836.00,0.0271
2835.00,0.0270
2834.00,0.0268
2833.00,0.0266
2832.00,0.0265
2831.00,0.0263
2830.00,0.0262
2829.00,0.0260
2828.00,0.0259
2827.00,0.0258
2826.00,0.0256
2825.00,0.0255
2824.00,0.0254
2823.00,0.0253
2822.00,0.0251
2821.00,0.0250
2820.00,0.0249
2819.00,0.0247
2818.00,0.0246
2817.00,0.0245
2816.00,0.0244
2815.00,0.0243
2814.00,0.0242
2813.00,0.0241
2812.00,0.0239
2811.00,0.0238
2810.00,0.0237
2809.00,0.0236
2808.00,0.0235
2807.00,0.0234
2806.00,0.0232
2805.00,0.0231
2804.00,0.0230
2803.00,0.0229
2802.00,0.0228
2801.00,0.0227
2800.00,0.0226
2799.00,0.0225
2798.00,0.0224
2797.00,0.0223
2796.00,0.0222
2795.00,0.0221
2794.00,0.0220
2793.00,0.0219
2792.00,0.0218
2791.00,0.0217
2790.00,0.0217
2789.00,0.0216
2788.00,0.0215
2787.00,0.0215
2786.00,0.0214
2785.00,0.0213
2784.00,0.0212
2783.00,0.0211
2782.00,0.0210
2781.00,0.0209
2780.00,0.0208
2779.00,0.0208
2778.00,0.0207
2777.00,0.0206
2776.00,0.0205
2775.00,0.0205
2774.00,0.0204
2773.00,0.0204
2772.00,0.0203
2771.00,0.0202
2770.00,0.0201
2769.00,0.0201
2768.00,0.0201
2767.00,0.0200
2766.00,0.0200
2765.00,0.0199
2764.00,0.0198
2763.00,0.0197
2762.00,0.0196
2761.00,0.0196
2760.00,0.0195
2759.00,0.0195
2758.00,0.0194
2757.00,0.0193
2756.00,0.0193
2755.00,0.0192
2754.00,0.0192
2753.00,0.0191
2752.00,0.0191
2751.00,0.0191
2750.00,0.0190
2749.00,0.0190
2748.00,0.0190
2747.00,0.0189
2746.00,0.0188
2745.00,0.0188
2744.00,0.0187
2743.00,0.0187
2742.00,0.0186
2741.00,0.0185
2740.00,0.0185
2739.00,0.0184
2738.00,0.0184
2737.00,0.0183
2736.00,0.0183
2735.00,0.0182
2734.00,0.0182
2733.00,0.0182
2732.00,0.0181
2731.00,0.0181
2730.00,0.0180
2729.00,0.0180
2728.00,0.0179
2727.00,0.0179
2726.00,0.0178
2725.00,0.0178
2724.00,0.0177
2723.00,0.0177
2722.00,0.0176
2721.00,0.0176
2720.00,0.0175
2719.00,0.0175
2718.00,0.0174
2717.00,0.0174
2716.00,0.0173
2715.00,0.0172
2714.00,0.0172
2713.00,0.0172
2712.00,0.0171
2711.00,0.0171
2710.00,0.0171
2709.00,0.0171
2708.00,0.0170
2707.00,0.0169
2706.00,0.0169
2705.00,0.0169
2704.00,0.0168
2703.00,0.0168
2702.00,0.0168
2701.00,0.0167
2700.00,0.0167
2699.00,0.0167
2698.00,0.0166
2697.00,0.0166
2696.00,0.0165
2695.00,0.0165
2694.00,0.0165
2693.00,0.0164
2692.00,0.0164
2691.00,0.0163
2690.00,0.0163
2689.00,0.0162
2688.00,0.0162
2687.00,0.0162
2686.00,0.0161
2685.00,0.0161
2684.00,0.0161
2683.00,0.0161
2682.00,0.0161
2681.00,0.0161
2680.00,0.0161
2679.00,0.0160
2678.00,0.0160
2677.00,0.0159
2676.00,0.0159
2675.00,0.0158
2674.00,0.0158
2673.00,0.0157
2672.00,0.0157
2671.00,0.0157
2670.00,0.0156
2669.00,0.0156
2668.00,0.0156
2667.00,0.0156
2666.00,0.0156
2665.00,0.0155
2664.00,0.0155
2663.00,0.0156
2662.00,0.0156
2661.00,0.0157
2660.00,0.0157
2659.00,0.0157
2658.00,0.0156
2657.00,0.0156
2656.00,0.0155
2655.00,0.0155
2654.00,0.0154
2653.00,0.0154
2652.00,0.0154
2651.00,0.0153
2650.00,0.0153
2649.00,0.0153
2648.00,0.0153
2647.00,0.0152
2646.00,0.0152
2645.00,0.0151
2644.00,0.0151
2643.00,0.0150
2642.00,0.0150
2641.00,0.0150
2640.00,0.0149
2639.00,0.0148
2638.00,0.0147
2637.00,0.0147
2636.00,0.0146
2635.00,0.0146
2634.00,0.0145
2633.00,0.0145
2632.00,0.0144
2631.00,0.0144
2630.00,0.0143
2629.00,0.0143
2628.00,0.0143
2627.00,0.0143
2626.00,0.0142
2625.00,0.0142
2624.00,0.0141
2623.00,0.0140
2622.00,0.0140
2621.00,0.0140
2620.00,0.0139
2619.00,0.0138
2618.00,0.0138
2617.00,0.0138
2616.00,0.0137
2615.00,0.0137
2614.00,0.0137
2613.00,0.0137
2612.00,0.0137
2611.00,0.0136
2610.00,0.0135
2609.00,0.0135
2608.00,0.0134
2607.00,0.0134
2606.00,0.0134
2605.00,0.0134
2604.00,0.0133
2603.00,0.0133
2602.00,0.0133
2601.00,0.0132
2600.00,0.0132
2599.00,0.0132
2598.00,0.0131
2597.00,0.0131
2596.00,0.0131
2595.00,0.0131
2594.00,0.0130
2593.00,0.0130
2592.00,0.0129
2591.00,0.0129
2590.00,0.0128
2589.00,0.0128
2588.00,0.0127
2587.00,0.0126
2586.00,0.0125
2585.00,0.0125
2584.00,0.0126
2583.00,0.0126
2582.00,0.0126
2581.00,0.0126
2580.00,0.0126
2579.00,0.0126
2578.00,0.0126
2577.00,0.0126
2576.00,0.0125
2575.00,0.0125
2574.00,0.0124
2573.00,0.0123
2572.00,0.0123
2571.00,0.0123
2570.00,0.0123
2569.00,0.0122
2568.00,0.0121
2567.00,0.0121
2566.00,0.0120
2565.00,0.0120
2564.00,0.0120
2563.00,0.0120
2562.00,0.0120
2561.00,0.0120
2560.00,0.0120
2559.00,0.0120
2558.00,0.0120
2557.00,0.0119
2556.00,0.0119
2555.00,0.0118
2554.00,0.0118
2553.00,0.0118
2552.00,0.0118
2551.00,0.0118
2550.00,0.0118
2549.00,0.0118
2548.00,0.0117
2547.00,0.0117
2546.00,0.0117
2545.00,0.0116
2544.00,0.0116
2543.00,0.0116
2542.00,0.0116
2541.00,0.0116
2540.00,0.0115
2539.00,0.0115
2538.00,0.0115
2537.00,0.0115
2536.00,0.0115
2535.00,0.0115
2534.00,0.0115
2533.00,0.0116
2532.00,0.0116
2531.00,0.0116
2530.00,0.0115
2529.00,0.0115
2528.00,0.0114
2527.00,0.0114
2526.00,0.0114
2525.00,0.0114
2524.00,0.0114
2523.00,0.0113
2522.00,0.0113
2521.00,0.0113
2520.00,0.0114
2519.00,0.0114
2518.00,0.0114
2517.00,0.0114
2516.00,0.0113
2515.00,0.0113
2514.00,0.0113
2513.00,0.0113
2512.00,0.0114
2511.00,0.0114
2510.00,0.0114
2509.00,0.0114
2508.00,0.0113
2507.00,0.0112
2506.00,0.0112
2505.00,0.0112
2504.00,0.0112
2503.00,0.0112
2502.00,0.0111
2501.00,0.0111
2500.00,0.0111
2499.00,0.0111
2498.00,0.0111
2497.00,0.0111
2496.00,0.0112
2495.00,0.0113
2494.00,0.0112
2493.00,0.0112
2492.00,0.0111
2491.00,0.0111
2490.00,0.0112
2489.00,0.0112
2488.00,0.0113
2487.00,0.0113
2486.00,0.0112
2485.00,0.0112
2484.00,0.0111
2483.00,0.0111
2482.00,0.0110
2481.00,0.0110
2480.00,0.0111
2479.00,0.0111
2478.00,0.0110
2477.00,0.0110
2476.00,0.0110
2475.00,0.0110
2474.00,0.0109
2473.00,0.0109
2472.00,0.0109
2471.00,0.0108
2470.00,0.0109
2469.00,0.0109
2468.00,0.0109
2467.00,0.0110
2466.00,0.0109
2465.00,0.0109
2464.00,0.0109
2463.00,0.0109
2462.00,0.0109
2461.00,0.0109
2460.00,0.0110
2459.00,0.0110
2458.00,0.0110
2457.00,0.0110
2456.00,0.0110
2455.00,0.0110
2454.00,0.0110
2453.00,0.0110
2452.00,0.0110
2451.00,0.0110
2450.00,0.0109
2449.00,0.0109
2448.00,0.0109
2447.00,0.0109
2446.00,0.0109
2445.00,0.0109
2444.00,0.0109
2443.00,0.0110
2442.00,0.0110
2441.00,0.0110
2440.00,0.0110
2439.00,0.0109
2438.00,0.0108
2437.00,0.0108
2436.00,0.0107
2435.00,0.0107
2434.00,0.0107
2433.00,0.0107
2432.00,0.0107
2431.00,0.0107
2430.00,0.0106
2429.00,0.0106
2428.00,0.0106
2427.00,0.0106
2426.00,0.0107
2425.00,0.0107
2424.00,0.0107
2423.00,0.0107
2422.00,0.0106
2421.00,0.0106
2420.00,0.0105
2419.00,0.0105
2418.00,0.0105
2417.00,0.0105
2416.00,0.0105
2415.00,0.0104
2414.00,0.0104
2413.00,0.0105
2412.00,0.0105
2411.00,0.0106
2410.00,0.0106
2409.00,0.0105
2408.00,0.0105
2407.00,0.0104
2406.00,0.0103
2405.00,0.0104
2404.00,0.0104
2403.00,0.0105
2402.00,0.0105
2401.00,0.0105
2400.00,0.0105
2399.00,0.0105
2398.00,0.0105
2397.00,0.0105
2396.00,0.0105
2395.00,0.0106
2394.00,0.0106
2393.00,0.0107
2392.00,0.0107
2391.00,0.0106
2390.00,0.0106
2389.00,0.0105
2388.00,0.0105
2387.00,0.0106
2386.00,0.0106
2385.00,0.0105
2384.00,0.0105
2383.00,0.0105
2382.00,0.0105
2381.00,0.0105
2380.00,0.0106
2379.00,0.0106
2378.00,0.0105
2377.00,0.0105
2376.00,0.0106
2375.00,0.0106
2374.00,0.0107
2373.00,0.0107
2372.00,0.0107
2371.00,0.0107
2370.00,0.0106
2369.00,0.0105
2368.00,0.0105
2367.00,0.0106
2366.00,0.0107
2365.00,0.0108
2364.00,0.0110
2363.00,0.0111
2362.00,0.0111
2361.00,0.0112
2360.00,0.0112
2359.00,0.0112
2358.00,0.0111
2357.00,0.0111
2356.00,0.0111
2355.00,0.0112
2354.00,0.0112
2353.00,0.0113
2352.00,0.0113
2351.00,0.0113
2350.00,0.0113
2349.00,0.0115
2348.00,0.0117
2347.00,0.0119
2346.00,0.0120
2345.00,0.0119
2344.00,0.0117
2343.00,0.0117
2342.00,0.0117
2341.00,0.0118
2340.00,0.0118
2339.00,0.0119
2338.00,0.0119
2337.00,0.0119
2336.00,0.0119
2335.00,0.0119
2334.00,0.0118
2333.00,0.0118
2332.00,0.0118
2331.00,0.0118
2330.00,0.0118
2329.00,0.0119
2328.00,0.0120
2327.00,0.0124
2326.00,0.0128
2325.00,0.0132
2324.00,0.0133
2323.00,0.0133
2322.00,0.0130
2321.00,0.0129
2320.00,0.0127
2319.00,0.0127
2318.00,0.0126
2317.00,0.0126
2316.00,0.0126
2315.00,0.0125
2314.00,0.0125
2313.00,0.0124
2312.00,0.0124
2311.00,0.0124
2310.00,0.0124
2309.00,0.0123
2308.00,0.0122
2307.00,0.0121
2306.00,0.0120
2305.00,0.0120
2304.00,0.0121
2303.00,0.0122
2302.00,0.0122
2301.00,0.0123
2300.00,0.0124
2299.00,0.0125
2298.00,0.0126
2297.00,0.0126
2296.00,0.0126
2295.00,0.0127
2294.00,0.0127
2293.00,0.0127
2292.00,0.0128
2291.00,0.0129
2290.00,0.0130
2289.00,0.0132
2288.00,0.0133
2287.00,0.0133
2286.00,0.0132
2285.00,0.0132
2284.00,0.0132
2283.00,0.0132
2282.00,0.0132
2281.00,0.0131
2280.00,0.0130
2279.00,0.0129
2278.00,0.0128
2277.00,0.0127
2276.00,0.0126
2275.00,0.0126
2274.00,0.0126
2273.00,0.0125
2272.00,0.0125
2271.00,0.0125
2270.00,0.0125
2269.00,0.0125
2268.00,0.0124
2267.00,0.0124
2266.00,0.0123
2265.00,0.0122
2264.00,0.0122
2263.00,0.0122
2262.00,0.0122
2261.00,0.0122
2260.00,0.0122
2259.00,0.0122
2258.00,0.0121
2257.00,0.0121
2256.00,0.0121
2255.00,0.0121
2254.00,0.0120
2253.00,0.0120
2252.00,0.0120
2251.00,0.0121
2250.00,0.0121
2249.00,0.0121
2248.00,0.0122
2247.00,0.0123
2246.00,0.0122
2245.00,0.0122
2244.00,0.0121
2243.00,0.0122
2242.00,0.0122
2241.00,0.0123
2240.00,0.0123
2239.00,0.0123
2238.00,0.0122
2237.00,0.0121
2236.00,0.0120
2235.00,0.0120
2234.00,0.0121
2233.00,0.0121
2232.00,0.0120
2231.00,0.0119
2230.00,0.0117
2229.00,0.0117
2228.00,0.0118
2227.00,0.0121
2226.00,0.0123
2225.00,0.0123
2224.00,0.0123
2223.00,0.0121
2222.00,0.0120
2221.00,0.0120
2220.00,0.0119
2219.00,0.0118
2218.00,0.0117
2217.00,0.0117
2216.00,0.0118
2215.00,0.0120
2214.00,0.0122
2213.00,0.0122
2212.00,0.0121
2211.00,0.0119
2210.00,0.0117
2209.00,0.0117
2208.00,0.0118
2207.00,0.0119
2206.00,0.0117
2205.00,0.0116
2204.00,0.0115
2203.00,0.0115
2202.00,0.0116
2201.00,0.0116
2200.00,0.0115
2199.00,0.0115
2198.00,0.0115
2197.00,0.0115
2196.00,0.0116
2195.00,0.0117
2194.00,0.0117
2193.00,0.0117
2192.00,0.0116
2191.00,0.0116
2190.00,0.0118
2189.00,0.0119
2188.00,0.0119
2187.00,0.0118
2186.00,0.0118
2185.00,0.0117
2184.00,0.0116
2183.00,0.0114
2182.00,0.0112
2181.00,0.0111
2180.00,0.0110
2179.00,0.0110
2178.00,0.0110
2177.00,0.0110
2176.00,0.0111
2175.00,0.0111
2174.00,0.0111
2173.00,0.0112
2172.00,0.0112
2171.00,0.0113
2170.00,0.0116
2169.00,0.0120
2168.00,0.0125
2167.00,0.0128
2166.00,0.0128
2165.00,0.0125
2164.00,0.0122
2163.00,0.0120
2162.00,0.0118
2161.00,0.0112
2160.00,0.0100
2159.00,0.0085
2158.00,0.0072
2157.00,0.0067
2156.00,0.0069
2155.00,0.0072
2154.00,0.0076
2153.00,0.0080
2152.00,0.0083
2151.00,0.0086
2150.00,0.0089
2149.00,0.0092
2148.00,0.0094
2147.00,0.0094
2146.00,0.0093
2145.00,0.0093
2144.00,0.0093
2143.00,0.0094
2142.00,0.0094
2141.00,0.0094
2140.00,0.0095
2139.00,0.0097
2138.00,0.0098
2137.00,0.0100
2136.00,0.0101
2135.00,0.0100
2134.00,0.0098
2133.00,0.0098
2132.00,0.0099
2131.00,0.0102
2130.00,0.0104
2129.00,0.0107
2128.00,0.0109
2127.00,0.0112
2126.00,0.0113
2125.00,0.0114
2124.00,0.0115
2123.00,0.0116
2122.00,0.0117
2121.00,0.0119
2120.00,0.0120
2119.00,0.0120
2118.00,0.0120
2117.00,0.0121
2116.00,0.0123
2115.00,0.0124
2114.00,0.0124
2113.00,0.0124
2112.00,0.0123
2111.00,0.0123
2110.00,0.0124
2109.00,0.0125
2108.00,0.0126
2107.00,0.0126
2106.00,0.0126
2105.00,0.0126
2104.00,0.0126
2103.00,0.0126
2102.00,0.0127
2101.00,0.0127
2100.00,0.0127
2099.00,0.0126
2098.00,0.0125
2097.00,0.0123
2096.00,0.0122
2095.00,0.0120
2094.00,0.0119
2093.00,0.0118
2092.00,0.0119
2091.00,0.0119
2090.00,0.0119
2089.00,0.0119
2088.00,0.0119
2087.00,0.0119
2086.00,0.0119
2085.00,0.0120
2084.00,0.0121
2083.00,0.0121
2082.00,0.0121
2081.00,0.0122
2080.00,0.0122
2079.00,0.0123
2078.00,0.0123
2077.00,0.0122
2076.00,0.0121
2075.00,0.0118
2074.00,0.0117
2073.00,0.0116
2072.00,0.0116
2071.00,0.0116
2070.00,0.0115
2069.00,0.0114
2068.00,0.0113
2067.00,0.0112
2066.00,0.0110
2065.00,0.0109
2064.00,0.0109
2063.00,0.0109
2062.00,0.0109
2061.00,0.0109
2060.00,0.0109
2059.00,0.0109
2058.00,0.0109
2057.00,0.0108
2056.00,0.0107
2055.00,0.0106
2054.00,0.0107
2053.00,0.0109
2052.00,0.0112
2051.00,0.0114
2050.00,0.0112
2049.00,0.0108
2048.00,0.0105
2047.00,0.0102
2046.00,0.0100
2045.00,0.0099
2044.00,0.0098
2043.00,0.0097
2042.00,0.0096
2041.00,0.0094
2040.00,0.0093
2039.00,0.0092
2038.00,0.0091
2037.00,0.0090
2036.00,0.0089
2035.00,0.0085
2034.00,0.0081
2033.00,0.0078
2032.00,0.0078
2031.00,0.0078
2030.00,0.0077
2029.00,0.0074
2028.00,0.0071
2027.00,0.0067
2026.00,0.0065
2025.00,0.0066
2024.00,0.0068
2023.00,0.0071
2022.00,0.0073
2021.00,0.0075
2020.00,0.0076
2019.00,0.0075
2018.00,0.0074
2017.00,0.0073
2016.00,0.0074
2015.00,0.0074
2014.00,0.0074
2013.00,0.0073
2012.00,0.0072
2011.00,0.0071
2010.00,0.0072
2009.00,0.0071
2008.00,0.0070
2007.00,0.0067
2006.00,0.0065
2005.00,0.0066
2004.00,0.0068
2003.00,0.0069
2002.00,0.0070
2001.00,0.0073
2000.00,0.0077
1999.00,0.0080
1998.00,0.0081
1997.00,0.0082
1996.00,0.0083
1995.00,0.0082
1994.00,0.0081
1993.00,0.0081
1992.00,0.0081
1991.00,0.0082
1990.00,0.0082
1989.00,0.0083
1988.00,0.0083
1987.00,0.0083
1986.00,0.0084
1985.00,0.0085
1984.00,0.0086
1983.00,0.0088
1982.00,0.0090
1981.00,0.0092
1980.00,0.0093
1979.00,0.0090
1978.00,0.0084
1977.00,0.0078
1976.00,0.0074
1975.00,0.0072
1974.00,0.0071
1973.00,0.0071
1972.00,0.0071
1971.00,0.0071
1970.00,0.0069
1969.00,0.0066
1968.00,0.0065
1967.00,0.0065
1966.00,0.0066
1965.00,0.0069
1964.00,0.0071
1963.00,0.0072
1962.00,0.0072
1961.00,0.0072
1960.00,0.0072
1959.00,0.0071
1958.00,0.0070
1957.00,0.0072
1956.00,0.0074
1955.00,0.0076
1954.00,0.0076
1953.00,0.0075
1952.00,0.0075
1951.00,0.0076
1950.00,0.0076
1949.00,0.0077
1948.00,0.0076
1947.00,0.0075
1946.00,0.0074
1945.00,0.0075
1944.00,0.0074
1943.00,0.0073
1942.00,0.0071
1941.00,0.0073
1940.00,0.0076
1939.00,0.0079
1938.00,0.0080
1937.00,0.0079
1936.00,0.0078
1935.00,0.0078
1934.00,0.0078
1933.00,0.0079
1932.00,0.0079
1931.00,0.0079
1930.00,0.0080
1929.00,0.0080
1928.00,0.0081
1927.00,0.0081
1926.00,0.0081
1925.00,0.0080
1924.00,0.0078
1923.00,0.0076
1922.00,0.0077
1921.00,0.0080
1920.00,0.0083
1919.00,0.0084
1918.00,0.0083
1917.00,0.0081
1916.00,0.0080
1915.00,0.0081
1914.00,0.0082
1913.00,0.0083
1912.00,0.0083
1911.00,0.0083
1910.00,0.0081
1909.00,0.0079
1908.00,0.0078
1907.00,0.0078
1906.00,0.0078
1905.00,0.0078
1904.00,0.0078
1903.00,0.0079
1902.00,0.0079
1901.00,0.0079
1900.00,0.0080
1899.00,0.0080
1898.00,0.0080
1897.00,0.0080
1896.00,0.0079
1895.00,0.0079
1894.00,0.0078
1893.00,0.0078
1892.00,0.0079
1891.00,0.0079
1890.00,0.0077
1889.00,0.0075
1888.00,0.0074
1887.00,0.0074
1886.00,0.0074
1885.00,0.0074
1884.00,0.0074
1883.00,0.0074
1882.00,0.0075
1881.00,0.0075
1880.00,0.0075
1879.00,0.0074
1878.00,0.0073
1877.00,0.0072
1876.00,0.0073
1875.00,0.0074
1874.00,0.0075
1873.00,0.0076
1872.00,0.0077
1871.00,0.0078
1870.00,0.0077
1869.00,0.0074
1868.00,0.0071
1867.00,0.0069
1866.00,0.0069
1865.00,0.0070
1864.00,0.0071
1863.00,0.0071
1862.00,0.0071
1861.00,0.0070
1860.00,0.0070
1859.00,0.0070
1858.00,0.0071
1857.00,0.0071
1856.00,0.0071
1855.00,0.0071
1854.00,0.0071
1853.00,0.0071
1852.00,0.0071
1851.00,0.0072
1850.00,0.0072
1849.00,0.0071
1848.00,0.0069
1847.00,0.0069
1846.00,0.0071
1845.00,0.0073
1844.00,0.0073
1843.00,0.0071
1842.00,0.0069
1841.00,0.0069
1840.00,0.0071
1839.00,0.0072
1838.00,0.0071
1837.00,0.0070
1836.00,0.0070
1835.00,0.0069
1834.00,0.0069
1833.00,0.0071
1832.00,0.0073
1831.00,0.0074
1830.00,0.0073
1829.00,0.0071
1828.00,0.0070
1827.00,0.0071
1826.00,0.0070
1825.00,0.0069
1824.00,0.0068
1823.00,0.0067
1822.00,0.0068
1821.00,0.0069
1820.00,0.0069
1819.00,0.0069
1818.00,0.0068
1817.00,0.0067
1816.00,0.0066
1815.00,0.0067
1814.00,0.0068
1813.00,0.0069
1812.00,0.0070
1811.00,0.0069
1810.00,0.0068
1809.00,0.0069
1808.00,0.0069
1807.00,0.0068
1806.00,0.0069
1805.00,0.0069
1804.00,0.0069
1803.00,0.0068
1802.00,0.0067
1801.00,0.0067
1800.00,0.0068
1799.00,0.0069
1798.00,0.0069
1797.00,0.0069
1796.00,0.0068
1795.00,0.0068
1794.00,0.0071
1793.00,0.0072
1792.00,0.0071
1791.00,0.0068
1790.00,0.0067
1789.00,0.0067
1788.00,0.0069
1787.00,0.0070
1786.00,0.0069
1785.00,0.0068
1784.00,0.0068
1783.00,0.0068
1782.00,0.0069
1781.00,0.0068
1780.00,0.0067
1779.00,0.0066
1778.00,0.0067
1777.00,0.0067
1776.00,0.0068
1775.00,0.0068
1774.00,0.0070
1773.00,0.0072
1772.00,0.0073
1771.00,0.0071
1770.00,0.0070
1769.00,0.0069
1768.00,0.0068
1767.00,0.0067
1766.00,0.0067
1765.00,0.0069
1764.00,0.0070
1763.00,0.0071
1762.00,0.0070
1761.00,0.0069
1760.00,0.0070
1759.00,0.0072
1758.00,0.0074
1757.00,0.0076
1756.00,0.0078
1755.00,0.0080
1754.00,0.0083
1753.00,0.0086
1752.00,0.0090
1751.00,0.0093
1750.00,0.0094
1749.00,0.0096
1748.00,0.0098
1747.00,0.0101
1746.00,0.0103
1745.00,0.0105
1744.00,0.0107
1743.00,0.0109
1742.00,0.0112
1741.00,0.0117
1740.00,0.0122
1739.00,0.0123
1738.00,0.0122
1737.00,0.0122
1736.00,0.0125
1735.00,0.0129
1734.00,0.0128
1733.00,0.0126
1732.00,0.0125
1731.00,0.0125
1730.00,0.0126
1729.00,0.0127
1728.00,0.0130
1727.00,0.0134
1726.00,0.0137
1725.00,0.0139
1724.00,0.0142
1723.00,0.0144
1722.00,0.0146
1721.00,0.0150
1720.00,0.0155
1719.00,0.0159
1718.00,0.0161
1717.00,0.0163
1716.00,0.0168
1715.00,0.0174
1714.00,0.0179
1713.00,0.0184
1712.00,0.0189
1711.00,0.0194
1710.00,0.0199
1709.00,0.0205
1708.00,0.0213
1707.00,0.0223
1706.00,0.0231
1705.00,0.0238
1704.00,0.0245
1703.00,0.0252
1702.00,0.0265
1701.00,0.0286
1700.00,0.0308
1699.00,0.0321
1698.00,0.0328
1697.00,0.0338
1696.00,0.0354
1695.00,0.0375
1694.00,0.0395
1693.00,0.0411
1692.00,0.0427
1691.00,0.0444
1690.00,0.0461
1689.00,0.0478
1688.00,0.0494
1687.00,0.0509
1686.00,0.0527
1685.00,0.0554
1684.00,0.0587
1683.00,0.0617
1682.00,0.0639
1681.00,0.0655
1680.00,0.0671
1679.00,0.0689
1678.00,0.0707
1677.00,0.0729
1676.00,0.0756
1675.00,0.0786
1674.00,0.0811
1673.00,0.0831
1672.00,0.0849
1671.00,0.0871
1670.00,0.0896
1669.00,0.0925
1668.00,0.0952
1667.00,0.0975
1666.00,0.0993
1665.00,0.1012
1664.00,0.1036
1663.00,0.1065
1662.00,0.1095
1661.00,0.1123
1660.00,0.1147
1659.00,0.1168
1658.00,0.1186
1657.00,0.1198
1656.00,0.1206
1655.00,0.1216
1654.00,0.1239
1653.00,0.1281
1652.00,0.1323
1651.00,0.1344
1650.00,0.1347
1649.00,0.1346
1648.00,0.1349
1647.00,0.1359
1646.00,0.1374
1645.00,0.1389
1644.00,0.1396
1643.00,0.1398
1642.00,0.1397
1641.00,0.1396
1640.00,0.1395
1639.00,0.1394
1638.00,0.1390
1637.00,0.1389
1636.00,0.1393
1635.00,0.1401
1634.00,0.1402
1633.00,0.1393
1632.00,0.1379
1631.00,0.1363
1630.00,0.1347
1629.00,0.1332
1628.00,0.1316
1627.00,0.1301
1626.00,0.1285
1625.00,0.1267
1624.00,0.1248
1623.00,0.1228
1622.00,0.1207
1621.00,0.1185
1620.00,0.1162
1619.00,0.1138
1618.00,0.1115
1617.00,0.1091
1616.00,0.1070
1615.00,0.1050
1614.00,0.1028
1613.00,0.1005
1612.00,0.0981
1611.00,0.0957
1610.00,0.0933
1609.00,0.0909
1608.00,0.0886
1607.00,0.0864
1606.00,0.0844
1605.00,0.0823
1604.00,0.0803
1603.00,0.0782
1602.00,0.0762
1601.00,0.0743
1600.00,0.0725
1599.00,0.0707
1598.00,0.0689
1597.00,0.0672
1596.00,0.0655
1595.00,0.0639
1594.00,0.0623
1593.00,0.0608
1592.00,0.0593
1591.00,0.0579
1590.00,0.0566
1589.00,0.0553
1588.00,0.0542
1587.00,0.0532
1586.00,0.0522
1585.00,0.0513
1584.00,0.0505
1583.00,0.0497
1582.00,0.0490
1581.00,0.0484
1580.00,0.0477
1579.00,0.0471
1578.00,0.0465
1577.00,0.0462
1576.00,0.0461
1575.00,0.0463
1574.00,0.0464
1573.00,0.0463
1572.00,0.0461
1571.00,0.0462
1570.00,0.0464
1569.00,0.0466
1568.00,0.0469
1567.00,0.0471
1566.00,0.0474
1565.00,0.0476
1564.00,0.0477
1563.00,0.0477
1562.00,0.0477
1561.00,0.0481
1560.00,0.0494
1559.00,0.0512
1558.00,0.0529
1557.00,0.0541
1556.00,0.0543
1555.00,0.0543
1554.00,0.0545
1553.00,0.0549
1552.00,0.0552
1551.00,0.0553
1550.00,0.0554
1549.00,0.0556
1548.00,0.0559
1547.00,0.0561
1546.00,0.0560
1545.00,0.0555
1544.00,0.0550
1543.00,0.0547
1542.00,0.0546
1541.00,0.0544
1540.00,0.0536
1539.00,0.0529
1538.00,0.0523
1537.00,0.0515
1536.00,0.0506
1535.00,0.0497
1534.00,0.0486
1533.00,0.0474
1532.00,0.0462
1531.00,0.0453
1530.00,0.0444
1529.00,0.0435
1528.00,0.0423
1527.00,0.0412
1526.00,0.0402
1525.00,0.0394
1524.00,0.0387
1523.00,0.0379
1522.00,0.0369
1521.00,0.0359
1520.00,0.0353
1519.00,0.0349
1518.00,0.0342
1517.00,0.0330
1516.00,0.0318
1515.00,0.0308
1514.00,0.0299
1513.00,0.0289
1512.00,0.0277
1511.00,0.0263
1510.00,0.0249
1509.00,0.0235
1508.00,0.0222
1507.00,0.0209
1506.00,0.0204
1505.00,0.0203
1504.00,0.0198
1503.00,0.0189
1502.00,0.0179
1501.00,0.0171
1500.00,0.0164
1499.00,0.0157
1498.00,0.0149
1497.00,0.0142
1496.00,0.0136
1495.00,0.0132
1494.00,0.0129
1493.00,0.0127
1492.00,0.0124
1491.00,0.0119
1490.00,0.0112
1489.00,0.0106
1488.00,0.0104
1487.00,0.0104
1486.00,0.0104
1485.00,0.0103
1484.00,0.0103
1483.00,0.0103
1482.00,0.0104
1481.00,0.0106
1480.00,0.0109
1479.00,0.0113
1478.00,0.0117
1477.00,0.0121
1476.00,0.0125
1475.00,0.0130
1474.00,0.0137
1473.00,0.0147
1472.00,0.0157
1471.00,0.0166
1470.00,0.0172
1469.00,0.0177
1468.00,0.0180
1467.00,0.0184
1466.00,0.0189
1465.00,0.0194
1464.00,0.0200
1463.00,0.0205
1462.00,0.0208
1461.00,0.0210
1460.00,0.0212
1459.00,0.0213
1458.00,0.0214
1457.00,0.0219
1456.00,0.0227
1455.00,0.0232
1454.00,0.0233
1453.00,0.0232
1452.00,0.0231
1451.00,0.0230
1450.00,0.0230
1449.00,0.0230
1448.00,0.0229
1447.00,0.0228
1446.00,0.0228
1445.00,0.0229
1444.00,0.0229
1443.00,0.0229
1442.00,0.0229
1441.00,0.0230
1440.00,0.0230
1439.00,0.0231
1438.00,0.0232
1437.00,0.0235
1436.00,0.0239
1435.00,0.0242
1434.00,0.0244
1433.00,0.0246
1432.00,0.0248
1431.00,0.0252
1430.00,0.0256
1429.00,0.0260
1428.00,0.0266
1427.00,0.0270
1426.00,0.0274
1425.00,0.0278
1424.00,0.0282
1423.00,0.0285
1422.00,0.0289
1421.00,0.0292
1420.00,0.0296
1419.00,0.0298
1418.00,0.0300
1417.00,0.0302
1416.00,0.0304
1415.00,0.0305
1414.00,0.0305
1413.00,0.0304
1412.00,0.0301
1411.00,0.0298
1410.00,0.0295
1409.00,0.0293
1408.00,0.0290
1407.00,0.0286
1406.00,0.0281
1405.00,0.0277
1404.00,0.0274
1403.00,0.0271
1402.00,0.0268
1401.00,0.0264
1400.00,0.0258
1399.00,0.0252
1398.00,0.0245
1397.00,0.0239
1396.00,0.0234
1395.00,0.0230
1394.00,0.0227
1393.00,0.0226
1392.00,0.0225
1391.00,0.0223
1390.00,0.0220
1389.00,0.0218
1388.00,0.0215
1387.00,0.0214
1386.00,0.0215
1385.00,0.0218
1384.00,0.0221
1383.00,0.0223
1382.00,0.0225
1381.00,0.0227
1380.00,0.0229
1379.00,0.0230
1378.00,0.0231
1377.00,0.0232
1376.00,0.0233
1375.00,0.0232
1374.00,0.0231
1373.00,0.0231
1372.00,0.0232
1371.00,0.0233
1370.00,0.0232
1369.00,0.0230
1368.00,0.0227
1367.00,0.0225
1366.00,0.0222
1365.00,0.0218
1364.00,0.0212
1363.00,0.0206
1362.00,0.0202
1361.00,0.0200
1360.00,0.0200
1359.00,0.0199
1358.00,0.0197
1357.00,0.0194
1356.00,0.0191
1355.00,0.0187
1354.00,0.0183
1353.00,0.0179
1352.00,0.0175
1351.00,0.0170
1350.00,0.0165
1349.00,0.0159
1348.00,0.0154
1347.00,0.0148
1346.00,0.0142
1345.00,0.0136
1344.00,0.0130
1343.00,0.0124
1342.00,0.0117
1341.00,0.0108
1340.00,0.0099
1339.00,0.0092
1338.00,0.0088
1337.00,0.0086
1336.00,0.0085
1335.00,0.0083
1334.00,0.0080
1333.00,0.0077
1332.00,0.0074
1331.00,0.0071
1330.00,0.0069
1329.00,0.0067
1328.00,0.0066
1327.00,0.0066
1326.00,0.0066
1325.00,0.0067
1324.00,0.0068
1323.00,0.0070
1322.00,0.0071
1321.00,0.0073
1320.00,0.0074
1319.00,0.0076
1318.00,0.0078
1317.00,0.0079
1316.00,0.0081
1315.00,0.0083
1314.00,0.0084
1313.00,0.0085
1312.00,0.0086
1311.00,0.0088
1310.00,0.0090
1309.00,0.0093
1308.00,0.0095
1307.00,0.0098
1306.00,0.0101
1305.00,0.0106
1304.00,0.0111
1303.00,0.0116
1302.00,0.0123
1301.00,0.0130
1300.00,0.0139
1299.00,0.0148
1298.00,0.0158
1297.00,0.0170
1296.00,0.0183
1295.00,0.0197
1294.00,0.0212
1293.00,0.0228
1292.00,0.0245
1291.00,0.0265
1290.00,0.0285
1289.00,0.0308
1288.00,0.0333
1287.00,0.0359
1286.00,0.0388
1285.00,0.0417
1284.00,0.0447
1283.00,0.0478
1282.00,0.0510
1281.00,0.0542
1280.00,0.0576
1279.00,0.0610
1278.00,0.0644
1277.00,0.0679
1276.00,0.0714
1275.00,0.0749
1274.00,0.0784
1273.00,0.0819
1272.00,0.0855
1271.00,0.0890
1270.00,0.0924
1269.00,0.0958
1268.00,0.0992
1267.00,0.1024
1266.00,0.1055
1265.00,0.1085
1264.00,0.1115
1263.00,0.1143
1262.00,0.1169
1261.00,0.1195
1260.00,0.1220
1259.00,0.1243
1258.00,0.1264
1257.00,0.1284
1256.00,0.1304
1255.00,0.1322
1254.00,0.1338
1253.00,0.1354
1252.00,0.1369
1251.00,0.1383
1250.00,0.1395
1249.00,0.1407
1248.00,0.1420
1247.00,0.1432
1246.00,0.1444
1245.00,0.1455
1244.00,0.1468
1243.00,0.1481
1242.00,0.1493
1241.00,0.1506
1240.00,0.1520
1239.00,0.1533
1238.00,0.1547
1237.00,0.1561
1236.00,0.1576
1235.00,0.1590
1234.00,0.1603
1233.00,0.1617
1232.00,0.1631
1231.00,0.1645
1230.00,0.1658
1229.00,0.1670
1228.00,0.1683
1227.00,0.1695
1226.00,0.1706
1225.00,0.1716
1224.00,0.1727
1223.00,0.1735
1222.00,0.1741
1221.00,0.1745
1220.00,0.1747
1219.00,0.1746
1218.00,0.1741
1217.00,0.1734
1216.00,0.1724
1215.00,0.1710
1214.00,0.1692
1213.00,0.1672
1212.00,0.1648
1211.00,0.1620
1210.00,0.1589
1209.00,0.1556
1208.00,0.1521
1207.00,0.1484
1206.00,0.1445
1205.00,0.1404
1204.00,0.1362
1203.00,0.1319
1202.00,0.1277
1201.00,0.1235
1200.00,0.1195
1199.00,0.1157
1198.00,0.1121
1197.00,0.1087
1196.00,0.1056
1195.00,0.1027
1194.00,0.1000
1193.00,0.0975
1192.00,0.0952
1191.00,0.0929
1190.00,0.0907
1189.00,0.0885
1188.00,0.0865
1187.00,0.0846
1186.00,0.0828
1185.00,0.0813
1184.00,0.0799
1183.00,0.0787
1182.00,0.0777
1181.00,0.0768
1180.00,0.0762
1179.00,0.0758
1178.00,0.0757
1177.00,0.0757
1176.00,0.0760
1175.00,0.0764
1174.00,0.0771
1173.00,0.0781
1172.00,0.0793
1171.00,0.0807
1170.00,0.0824
1169.00,0.0843
1168.00,0.0864
1167.00,0.0886
1166.00,0.0909
1165.00,0.0932
1164.00,0.0956
1163.00,0.0980
1162.00,0.1002
1161.00,0.1023
1160.00,0.1043
1159.00,0.1060
1158.00,0.1075
1157.00,0.1087
1156.00,0.1098
1155.00,0.1105
1154.00,0.1110
1153.00,0.1112
1152.00,0.1113
1151.00,0.1110
1150.00,0.1104
1149.00,0.1096
1148.00,0.1085
1147.00,0.1071
1146.00,0.1056
1145.00,0.1039
1144.00,0.1021
1143.00,0.1003
1142.00,0.0985
1141.00,0.0968
1140.00,0.0953
1139.00,0.0939
1138.00,0.0927
1137.00,0.0917
1136.00,0.0910
1135.00,0.0905
1134.00,0.0902
1133.00,0.0901
1132.00,0.0902
1131.00,0.0904
1130.00,0.0907
1129.00,0.0912
1128.00,0.0917
1127.00,0.0920
1126.00,0.0919
1125.00,0.0915
1124.00,0.0907
1123.00,0.0895
1122.00,0.0880
1121.00,0.0862
1120.00,0.0844
1119.00,0.0825
1118.00,0.0806
1117.00,0.0788
1116.00,0.0771
1115.00,0.0754
1114.00,0.0740
1113.00,0.0727
1112.00,0.0717
1111.00,0.0710
1110.00,0.0706
1109.00,0.0705
1108.00,0.0708
1107.00,0.0713
1106.00,0.0721
1105.00,0.0732
1104.00,0.0746
1103.00,0.0761
1102.00,0.0778
1101.00,0.0796
1100.00,0.0817
1099.00,0.0839
1098.00,0.0862
1097.00,0.0885
1096.00,0.0909
1095.00,0.0934
1094.00,0.0959
1093.00,0.0986
1092.00,0.1014
1091.00,0.1044
1090.00,0.1074
1089.00,0.1105
1088.00,0.1138
1087.00,0.1172
1086.00,0.1208
1085.00,0.1245
1084.00,0.1283
1083.00,0.1323
1082.00,0.1363
1081.00,0.1404
1080.00,0.1446
1079.00,0.1486
1078.00,0.1525
1077.00,0.1562
1076.00,0.1596
1075.00,0.1626
1074.00,0.1651
1073.00,0.1670
1072.00,0.1685
1071.00,0.1693
1070.00,0.1696
1069.00,0.1695
1068.00,0.1691
1067.00,0.1684
1066.00,0.1676
1065.00,0.1670
1064.00,0.1664
1063.00,0.1659
1062.00,0.1655
1061.00,0.1653
1060.00,0.1653
1059.00,0.1656
1058.00,0.1661
1057.00,0.1668
1056.00,0.1679
1055.00,0.1692
1054.00,0.1707
1053.00,0.1726
1052.00,0.1748
1051.00,0.1772
1050.00,0.1799
1049.00,0.1829
1048.00,0.1861
1047.00,0.1894
1046.00,0.1926
1045.00,0.1957
1044.00,0.1987
1043.00,0.2013
1042.00,0.2037
1041.00,0.2059
1040.00,0.2080
1039.00,0.2098
1038.00,0.2114
1037.00,0.2129
1036.00,0.2146
1035.00,0.2162
1034.00,0.2180
1033.00,0.2200
1032.00,0.2223
1031.00,0.2247
1030.00,0.2271
1029.00,0.2295
1028.00,0.2318
1027.00,0.2339
1026.00,0.2358
1025.00,0.2375
1024.00,0.2390
1023.00,0.2401
1022.00,0.2410
1021.00,0.2416
1020.00,0.2419
1019.00,0.2418
1018.00,0.2413
1017.00,0.2405
1016.00,0.2392
1015.00,0.2374
1014.00,0.2351
1013.00,0.2325
1012.00,0.2297
1011.00,0.2267
1010.00,0.2237
1009.00,0.2205
1008.00,0.2173
1007.00,0.2138
1006.00,0.2102
1005.00,0.2066
1004.00,0.2029
1003.00,0.1992
1002.00,0.1952
1001.00,0.1911
1000.00,0.1868
999.00,0.1822
998.00,0.1774
997.00,0.1725
996.00,0.1675
995.00,0.1625
994.00,0.1574
993.00,0.1522
992.00,0.1468
991.00,0.1414
990.00,0.1360
989.00,0.1307
988.00,0.1256
987.00,0.1205
986.00,0.1156
985.00,0.1109
984.00,0.1064
983.00,0.1022
982.00,0.0983
981.00,0.0948
980.00,0.0917
979.00,0.0889
978.00,0.0863
977.00,0.0838
976.00,0.0814
975.00,0.0790
974.00,0.0764
973.00,0.0738
972.00,0.0710
971.00,0.0680
970.00,0.0648
969.00,0.0616
968.00,0.0582
967.00,0.0547
966.00,0.0511
965.00,0.0475
964.00,0.0439
963.00,0.0404
962.00,0.0370
961.00,0.0339
960.00,0.0310
959.00,0.0284
958.00,0.0261
957.00,0.0240
956.00,0.0220
955.00,0.0203
954.00,0.0187
953.00,0.0175
952.00,0.0164
951.00,0.0156
950.00,0.0150
949.00,0.0147
948.00,0.0145
947.00,0.0146
946.00,0.0150
945.00,0.0157
944.00,0.0168
943.00,0.0182
942.00,0.0199
941.00,0.0219
940.00,0.0240
939.00,0.0263
938.00,0.0285
937.00,0.0307
936.00,0.0326
935.00,0.0342
934.00,0.0354
933.00,0.0361
932.00,0.0362
931.00,0.0357
930.00,0.0347
929.00,0.0333
928.00,0.0315
927.00,0.0295
926.00,0.0273
925.00,0.0251
924.00,0.0230
923.00,0.0210
922.00,0.0192
921.00,0.0176
920.00,0.0163
919.00,0.0151
918.00,0.0142
917.00,0.0135
916.00,0.0129
915.00,0.0126
914.00,0.0124
913.00,0.0124
912.00,0.0125
911.00,0.0126
910.00,0.0128
909.00,0.0131
908.00,0.0133
907.00,0.0135
906.00,0.0136
905.00,0.0136
904.00,0.0135
903.00,0.0133
902.00,0.0132
901.00,0.0130
900.00,0.0129
899.00,0.0126
898.00,0.0123
897.00,0.0122
896.00,0.0121
895.00,0.0122
894.00,0.0123
893.00,0.0124
892.00,0.0126
891.00,0.0128
890.00,0.0131
889.00,0.0133
888.00,0.0133
887.00,0.0131
886.00,0.0126
885.00,0.0119
884.00,0.0111
883.00,0.0101
882.00,0.0091
881.00,0.0081
880.00,0.0073
879.00,0.0066
878.00,0.0062
877.00,0.0061
876.00,0.0062
875.00,0.0063
874.00,0.0065
873.00,0.0066
872.00,0.0067
871.00,0.0067
870.00,0.0066
869.00,0.0065
868.00,0.0063
867.00,0.0062
866.00,0.0063
865.00,0.0065
864.00,0.0068
863.00,0.0073
862.00,0.0080
861.00,0.0089
860.00,0.0099
859.00,0.0110
858.00,0.0123
857.00,0.0138
856.00,0.0156
855.00,0.0176
854.00,0.0196
853.00,0.0217
852.00,0.0238
851.00,0.0259
850.00,0.0279
849.00,0.0298
848.00,0.0317
847.00,0.0334
846.00,0.0350
845.00,0.0363
844.00,0.0375
843.00,0.0384
842.00,0.0393
841.00,0.0403
840.00,0.0412
839.00,0.0422
838.00,0.0431
837.00,0.0441
836.00,0.0450
835.00,0.0458
834.00,0.0465
833.00,0.0469
832.00,0.0471
831.00,0.0469
830.00,0.0463
829.00,0.0454
828.00,0.0443
827.00,0.0429
826.00,0.0413
825.00,0.0397
824.00,0.0382
823.00,0.0367
822.00,0.0354
821.00,0.0341
820.00,0.0328
819.00,0.0316
818.00,0.0303
817.00,0.0291
816.00,0.0280
815.00,0.0271
814.00,0.0262
813.00,0.0253
812.00,0.0244
811.00,0.0234
810.00,0.0223
809.00,0.0213
808.00,0.0204
807.00,0.0193
806.00,0.0182
805.00,0.0170
804.00,0.0157
803.00,0.0145
802.00,0.0132
801.00,0.0121
800.00,0.0111
799.00,0.0101
798.00,0.0093
797.00,0.0085
796.00,0.0079
795.00,0.0073
794.00,0.0069
793.00,0.0065
792.00,0.0064
791.00,0.0064
790.00,0.0064
789.00,0.0066
788.00,0.0068
787.00,0.0071
786.00,0.0075
785.00,0.0078
784.00,0.0083
783.00,0.0088
782.00,0.0094
781.00,0.0101
780.00,0.0109
779.00,0.0117
778.00,0.0125
777.00,0.0133
776.00,0.0140
775.00,0.0145
774.00,0.0150
773.00,0.0154
772.00,0.0157
771.00,0.0158
770.00,0.0156
769.00,0.0152
768.00,0.0146
767.00,0.0140
766.00,0.0135
765.00,0.0129
764.00,0.0123
763.00,0.0116
762.00,0.0111
761.00,0.0107
760.00,0.0104
759.00,0.0101
758.00,0.0099
757.00,0.0098
756.00,0.0099
755.00,0.0100
754.00,0.0104
753.00,0.0110
752.00,0.0117
751.00,0.0126
750.00,0.0135
749.00,0.0145
748.00,0.0156
747.00,0.0165
746.00,0.0173
745.00,0.0179
744.00,0.0183
743.00,0.0185
742.00,0.0186
741.00,0.0188
740.00,0.0190
739.00,0.0192
738.00,0.0195
737.00,0.0197
736.00,0.0201
735.00,0.0204
734.00,0.0208
733.00,0.0211
732.00,0.0215
731.00,0.0218
730.00,0.0222
729.00,0.0225
728.00,0.0228
727.00,0.0232
726.00,0.0237
725.00,0.0241
724.00,0.0244
723.00,0.0244
722.00,0.0243
721.00,0.0240
720.00,0.0236
719.00,0.0233
718.00,0.0230
717.00,0.0228
716.00,0.0226
715.00,0.0223
714.00,0.0220
713.00,0.0216
712.00,0.0214
711.00,0.0213
710.00,0.0215
709.00,0.0219
708.00,0.0224
707.00,0.0229
706.00,0.0235
705.00,0.0240
704.00,0.0246
703.00,0.0252
702.00,0.0256
701.00,0.0258
700.00,0.0259
699.00,0.0258
698.00,0.0256
697.00,0.0253
696.00,0.0249
695.00,0.0243
694.00,0.0235
693.00,0.0226
692.00,0.0215
691.00,0.0204
690.00,0.0195
689.00,0.0188
688.00,0.0181
687.00,0.0174
686.00,0.0165
685.00,0.0157
684.00,0.0148
683.00,0.0141
682.00,0.0134
681.00,0.0130
680.00,0.0126
679.00,0.0123
678.00,0.0121
677.00,0.0122
676.00,0.0124
675.00,0.0126
674.00,0.0128
673.00,0.0128
672.00,0.0126
671.00,0.0118
670.00,0.0108
669.00,0.0102
668.00,0.0109
667.00,0.0123
666.00,0.0130
665.00,0.0129
664.00,0.0126
663.00,0.0124
662.00,0.0125
661.00,0.0126
660.00,0.0128
659.00,0.0131
658.00,0.0134
657.00,0.0135
656.00,0.0133
655.00,0.0128
654.00,0.0121
653.00,0.0112
652.00,0.0104
651.00,0.0097
650.00,0.0092
649.00,0.0089
648.00,0.0088
647.00,0.0087
646.00,0.0087
645.00,0.0088
644.00,0.0089
643.00,0.0088
642.00,0.0086
641.00,0.0083
640.00,0.0081
639.00,0.0080
638.00,0.0081
637.00,0.0085
636.00,0.0093
635.00,0.0105
634.00,0.0120
633.00,0.0139
632.00,0.0162
631.00,0.0186
630.00,0.0211
629.00,0.0238
628.00,0.0269
627.00,0.0301
626.00,0.0334
625.00,0.0366
624.00,0.0398
623.00,0.0429
622.00,0.0458
621.00,0.0486
620.00,0.0514
619.00,0.0541
618.00,0.0566
617.00,0.0589
616.00,0.0608
615.00,0.0621
614.00,0.0626
613.00,0.0627
612.00,0.0626
611.00,0.0622
610.00,0.0615
609.00,0.0607
608.00,0.0600
607.00,0.0594
606.00,0.0589
605.00,0.0588
604.00,0.0591
603.00,0.0593
602.00,0.0594
601.00,0.0594
600.00,0.0597
599.00,0.0601
598.00,0.0605
597.00,0.0609
596.00,0.0613
595.00,0.0617
594.00,0.0620
593.00,0.0627
592.00,0.0639
591.00,0.0656
590.00,0.0676
589.00,0.0698
588.00,0.0722
587.00,0.0744
586.00,0.0765
585.00,0.0785
584.00,0.0807
583.00,0.0828
582.00,0.0846
581.00,0.0861
580.00,0.0874
579.00,0.0882
578.00,0.0881
577.00,0.0875
576.00,0.0867
575.00,0.0857
574.00,0.0843
573.00,0.0827
572.00,0.0811
571.00,0.0792
570.00,0.0770
569.00,0.0748
568.00,0.0729
567.00,0.0712
566.00,0.0694
565.00,0.0677
564.00,0.0662
563.00,0.0648
562.00,0.0631
561.00,0.0614
560.00,0.0599
559.00,0.0587
558.00,0.0577
557.00,0.0569
556.00,0.0564
555.00,0.0556
554.00,0.0545
553.00,0.0533
552.00,0.0526
551.00,0.0520
550.00,0.0515
549.00,0.0509
548.00,0.0504
547.00,0.0499
546.00,0.0492
545.00,0.0487
544.00,0.0484
543.00,0.0482
542.00,0.0478
541.00,0.0474
540.00,0.0473
539.00,0.0471
538.00,0.0468
537.00,0.0463
536.00,0.0458
535.00,0.0455
534.00,0.0453
533.00,0.0452
532.00,0.0453
531.00,0.0452
530.00,0.0448
529.00,0.0441
528.00,0.0436
527.00,0.0432
526.00,0.0430
525.00,0.0431
524.00,0.0430
523.00,0.0424
522.00,0.0412
521.00,0.0399
520.00,0.0389
519.00,0.0383
518.00,0.0377
517.00,0.0372
516.00,0.0367
515.00,0.0358
514.00,0.0346
513.00,0.0334
512.00,0.0325
511.00,0.0319
510.00,0.0315
509.00,0.0311
508.00,0.0309
507.00,0.0307
506.00,0.0301
505.00,0.0294
504.00,0.0286
503.00,0.0277
502.00,0.0267
501.00,0.0260
500.00,0.0258
499.00,0.0258
498.00,0.0258
497.00,0.0259
496.00,0.0259
495.00,0.0255
494.00,0.0249
493.00,0.0244
492.00,0.0244
491.00,0.0244
490.00,0.0239
489.00,0.0234
488.00,0.0232
487.00,0.0231
486.00,0.0229
485.00,0.0228
484.00,0.0232
483.00,0.0238
482.00,0.0239
481.00,0.0236
480.00,0.0231
479.00,0.0224
478.00,0.0213
477.00,0.0202
476.00,0.0198
475.00,0.0196
474.00,0.0194
473.00,0.0192
472.00,0.0191
471.00,0.0186
470.00,0.0174
469.00,0.0163
468.00,0.0158
467.00,0.0157
466.00,0.0152
465.00,0.0148
464.00,0.0150
463.00,0.0155
462.00,0.0157
461.00,0.0153
460.00,0.0148
459.00,0.0139
458.00,0.0127
457.00,0.0116
456.00,0.0110
455.00,0.0104
454.00,0.0094
453.00,0.0085
452.00,0.0079
451.00,0.0082
450.00,0.0067
