Created as New Dataset,Sample 001 By Administrator Date Monday, June 09 2025
cm-1,A
4000.00,0.0067
3999.00,0.0067
3998.00,0.0067
3997.00,0.0067
3996.00,0.0068
3995.00,0.0068
3994.00,0.0068
3993.00,0.0067
3992.00,0.0067
3991.00,0.0067
3990.00,0.0067
3989.00,0.0067
3988.00,0.0067
3987.00,0.0068
3986.00,0.0068
3985.00,0.0068
3984.00,0.0068
3983.00,0.0067
3982.00,0.0067
3981.00,0.0068
3980.00,0.0068
3979.00,0.0068
3978.00,0.0069
3977.00,0.0069
3976.00,0.0069
3975.00,0.0069
3974.00,0.0069
3973.00,0.0069
3972.00,0.0068
3971.00,0.0068
3970.00,0.0068
3969.00,0.0068
3968.00,0.0068
3967.00,0.0068
3966.00,0.0068
3965.00,0.0068
3964.00,0.0068
3963.00,0.0069
3962.00,0.0069
3961.00,0.0069
3960.00,0.0070
3959.00,0.0070
3958.00,0.0070
3957.00,0.0070
3956.00,0.0070
3955.00,0.0070
3954.00,0.0070
3953.00,0.0070
3952.00,0.0070
3951.00,0.0070
3950.00,0.0070
3949.00,0.0070
3948.00,0.0070
3947.00,0.0070
3946.00,0.0070
3945.00,0.0070
3944.00,0.0070
3943.00,0.0070
3942.00,0.0069
3941.00,0.0069
3940.00,0.0069
3939.00,0.0069
3938.00,0.0069
3937.00,0.0069
3936.00,0.0070
3935.00,0.0070
3934.00,0.0071
3933.00,0.0071
3932.00,0.0071
3931.00,0.0071
3930.00,0.0070
3929.00,0.0070
3928.00,0.0070
3927.00,0.0070
3926.00,0.0071
3925.00,0.0071
3924.00,0.0070
3923.00,0.0070
3922.00,0.0070
3921.00,0.0070
3920.00,0.0070
3919.00,0.0071
3918.00,0.0071
3917.00,0.0071
3916.00,0.0070
3915.00,0.0070
3914.00,0.0069
3913.00,0.0069
3912.00,0.0069
3911.00,0.0069
3910.00,0.0069
3909.00,0.0069
3908.00,0.0069
3907.00,0.0070
3906.00,0.0070
3905.00,0.0071
3904.00,0.0071
3903.00,0.0072
3902.00,0.0072
3901.00,0.0072
3900.00,0.0072
3899.00,0.0072
3898.00,0.0071
3897.00,0.0071
3896.00,0.0070
3895.00,0.0071
3894.00,0.0071
3893.00,0.0071
3892.00,0.0071
3891.00,0.0070
3890.00,0.0070
3889.00,0.0070
3888.00,0.0070
3887.00,0.0071
3886.00,0.0071
3885.00,0.0072
3884.00,0.0072
3883.00,0.0072
3882.00,0.0072
3881.00,0.0072
3880.00,0.0072
3879.00,0.0071
3878.00,0.0070
3877.00,0.0070
3876.00,0.0071
3875.00,0.0072
3874.00,0.0072
3873.00,0.0072
3872.00,0.0072
3871.00,0.0071
3870.00,0.0071
3869.00,0.0070
3868.00,0.0070
3867.00,0.0070
3866.00,0.0071
3865.00,0.0072
3864.00,0.0072
3863.00,0.0072
3862.00,0.0071
3861.00,0.0071
3860.00,0.0071
3859.00,0.0070
3858.00,0.0069
3857.00,0.0067
3856.00,0.0066
3855.00,0.0065
3854.00,0.0066
3853.00,0.0067
3852.00,0.0067
3851.00,0.0069
3850.00,0.0070
3849.00,0.0071
3848.00,0.0072
3847.00,0.0072
3846.00,0.0072
3845.00,0.0072
3844.00,0.0072
3843.00,0.0072
3842.00,0.0072
3841.00,0.0072
3840.00,0.0071
3839.00,0.0071
3838.00,0.0071
3837.00,0.0071
3836.00,0.0071
3835.00,0.0071
3834.00,0.0071
3833.00,0.0071
3832.00,0.0071
3831.00,0.0071
3830.00,0.0071
3829.00,0.0071
3828.00,0.0071
3827.00,0.0071
3826.00,0.0070
3825.00,0.0070
3824.00,0.0069
3823.00,0.0070
3822.00,0.0071
3821.00,0.0072
3820.00,0.0072
3819.00,0.0071
3818.00,0.0071
3817.00,0.0071
3816.00,0.0071
3815.00,0.0071
3814.00,0.0071
3813.00,0.0070
3812.00,0.0070
3811.00,0.0069
3810.00,0.0069
3809.00,0.0068
3808.00,0.0068
3807.00,0.0068
3806.00,0.0068
3805.00,0.0068
3804.00,0.0069
3803.00,0.0069
3802.00,0.0070
3801.00,0.0070
3800.00,0.0070
3799.00,0.0070
3798.00,0.0070
3797.00,0.0071
3796.00,0.0070
3795.00,0.0070
3794.00,0.0069
3793.00,0.0069
3792.00,0.0069
3791.00,0.0069
3790.00,0.0069
3789.00,0.0069
3788.00,0.0069
3787.00,0.0070
3786.00,0.0070
3785.00,0.0070
3784.00,0.0070
3783.00,0.0070
3782.00,0.0070
3781.00,0.0070
3780.00,0.0070
3779.00,0.0070
3778.00,0.0069
3777.00,0.0069
3776.00,0.0069
3775.00,0.0069
3774.00,0.0069
3773.00,0.0069
3772.00,0.0069
3771.00,0.0069
3770.00,0.0070
3769.00,0.0071
3768.00,0.0071
3767.00,0.0072
3766.00,0.0072
3765.00,0.0072
3764.00,0.0072
3763.00,0.0072
3762.00,0.0072
3761.00,0.0072
3760.00,0.0073
3759.00,0.0073
3758.00,0.0072
3757.00,0.0072
3756.00,0.0072
3755.00,0.0072
3754.00,0.0072
3753.00,0.0072
3752.00,0.0072
3751.00,0.0072
3750.00,0.0072
3749.00,0.0072
3748.00,0.0073
3747.00,0.0073
3746.00,0.0073
3745.00,0.0073
3744.00,0.0074
3743.00,0.0075
3742.00,0.0075
3741.00,0.0075
3740.00,0.0076
3739.00,0.0076
3738.00,0.0077
3737.00,0.0078
3736.00,0.0079
3735.00,0.0078
3734.00,0.0077
3733.00,0.0076
3732.00,0.0075
3731.00,0.0075
3730.00,0.0076
3729.00,0.0076
3728.00,0.0077
3727.00,0.0077
3726.00,0.0077
3725.00,0.0077
3724.00,0.0076
3723.00,0.0076
3722.00,0.0076
3721.00,0.0076
3720.00,0.0076
3719.00,0.0076
3718.00,0.0076
3717.00,0.0076
3716.00,0.0076
3715.00,0.0076
3714.00,0.0077
3713.00,0.0078
3712.00,0.0079
3711.00,0.0080
3710.00,0.0080
3709.00,0.0080
3708.00,0.0081
3707.00,0.0082
3706.00,0.0082
3705.00,0.0083
3704.00,0.0083
3703.00,0.0084
3702.00,0.0084
3701.00,0.0084
3700.00,0.0084
3699.00,0.0084
3698.00,0.0084
3697.00,0.0085
3696.00,0.0085
3695.00,0.0086
3694.00,0.0086
3693.00,0.0087
3692.00,0.0089
3691.00,0.0090
3690.00,0.0090
3689.00,0.0091
3688.00,0.0092
3687.00,0.0094
3686.00,0.0095
3685.00,0.0096
3684.00,0.0097
3683.00,0.0098
3682.00,0.0099
3681.00,0.0100
3680.00,0.0100
3679.00,0.0101
3678.00,0.0102
3677.00,0.0104
3676.00,0.0107
3675.00,0.0109
3674.00,0.0111
3673.00,0.0113
3672.00,0.0116
3671.00,0.0119
3670.00,0.0121
3669.00,0.0123
3668.00,0.0125
3667.00,0.0126
3666.00,0.0129
3665.00,0.0131
3664.00,0.0133
3663.00,0.0135
3662.00,0.0137
3661.00,0.0139
3660.00,0.0141
3659.00,0.0144
3658.00,0.0147
3657.00,0.0150
3656.00,0.0154
3655.00,0.0157
3654.00,0.0161
3653.00,0.0164
3652.00,0.0168
3651.00,0.0172
3650.00,0.0177
3649.00,0.0181
3648.00,0.0185
3647.00,0.0189
3646.00,0.0192
3645.00,0.0196
3644.00,0.0200
3643.00,0.0204
3642.00,0.0207
3641.00,0.0210
3640.00,0.0214
3639.00,0.0218
3638.00,0.0223
3637.00,0.0227
3636.00,0.0232
3635.00,0.0236
3634.00,0.0240
3633.00,0.0244
3632.00,0.0247
3631.00,0.0251
3630.00,0.0257
3629.00,0.0263
3628.00,0.0270
3627.00,0.0276
3626.00,0.0282
3625.00,0.0288
3624.00,0.0293
3623.00,0.0297
3622.00,0.0300
3621.00,0.0304
3620.00,0.0309
3619.00,0.0315
3618.00,0.0321
3617.00,0.0326
3616.00,0.0332
3615.00,0.0337
3614.00,0.0342
3613.00,0.0346
3612.00,0.0351
3611.00,0.0356
3610.00,0.0362
3609.00,0.0367
3608.00,0.0372
3607.00,0.0378
3606.00,0.0383
3605.00,0.0387
3604.00,0.0392
3603.00,0.0397
3602.00,0.0401
3601.00,0.0406
3600.00,0.0411
3599.00,0.0416
3598.00,0.0422
3597.00,0.0427
3596.00,0.0432
3595.00,0.0437
3594.00,0.0442
3593.00,0.0447
3592.00,0.0452
3591.00,0.0457
3590.00,0.0462
3589.00,0.0468
3588.00,0.0474
3587.00,0.0480
3586.00,0.0486
3585.00,0.0492
3584.00,0.0497
3583.00,0.0502
3582.00,0.0506
3581.00,0.0510
3580.00,0.0514
3579.00,0.0517
3578.00,0.0522
3577.00,0.0527
3576.00,0.0532
3575.00,0.0537
3574.00,0.0542
3573.00,0.0547
3572.00,0.0552
3571.00,0.0557
3570.00,0.0563
3569.00,0.0568
3568.00,0.0573
3567.00,0.0579
3566.00,0.0584
3565.00,0.0590
3564.00,0.0595
3563.00,0.0601
3562.00,0.0606
3561.00,0.0610
3560.00,0.0614
3559.00,0.0618
3558.00,0.0622
3557.00,0.0626
3556.00,0.0631
3555.00,0.0637
3554.00,0.0642
3553.00,0.0647
3552.00,0.0652
3551.00,0.0657
3550.00,0.0662
3549.00,0.0667
3548.00,0.0672
3547.00,0.0677
3546.00,0.0682
3545.00,0.0687
3544.00,0.0692
3543.00,0.0697
3542.00,0.0701
3541.00,0.0706
3540.00,0.0711
3539.00,0.0715
3538.00,0.0720
3537.00,0.0724
3536.00,0.0729
3535.00,0.0733
3534.00,0.0738
3533.00,0.0743
3532.00,0.0747
3531.00,0.0752
3530.00,0.0756
3529.00,0.0761
3528.00,0.0765
3527.00,0.0771
3526.00,0.0776
3525.00,0.0781
3524.00,0.0786
3523.00,0.0790
3522.00,0.0794
3521.00,0.0798
3520.00,0.0802
3519.00,0.0806
3518.00,0.0810
3517.00,0.0814
3516.00,0.0819
3515.00,0.0824
3514.00,0.0829
3513.00,0.0834
3512.00,0.0838
3511.00,0.0842
3510.00,0.0846
3509.00,0.0850
3508.00,0.0855
3507.00,0.0860
3506.00,0.0865
3505.00,0.0870
3504.00,0.0875
3503.00,0.0879
3502.00,0.0884
3501.00,0.0888
3500.00,0.0893
3499.00,0.0897
3498.00,0.0901
3497.00,0.0904
3496.00,0.0909
3495.00,0.0913
3494.00,0.0917
3493.00,0.0922
3492.00,0.0926
3491.00,0.0930
3490.00,0.0934
3489.00,0.0939
3488.00,0.0943
3487.00,0.0948
3486.00,0.0952
3485.00,0.0957
3484.00,0.0961
3483.00,0.0966
3482.00,0.0970
3481.00,0.0974
3480.00,0.0978
3479.00,0.0983
3478.00,0.0987
3477.00,0.0990
3476.00,0.0994
3475.00,0.0998
3474.00,0.1003
3473.00,0.1008
3472.00,0.1013
3471.00,0.1018
3470.00,0.1023
3469.00,0.1027
3468.00,0.1032
3467.00,0.1035
3466.00,0.1039
3465.00,0.1043
3464.00,0.1046
3463.00,0.1050
3462.00,0.1054
3461.00,0.1058
3460.00,0.1063
3459.00,0.1067
3458.00,0.1071
3457.00,0.1075
3456.00,0.1079
3455.00,0.1082
3454.00,0.1086
3453.00,0.1090
3452.00,0.1093
3451.00,0.1097
3450.00,0.1101
3449.00,0.1105
3448.00,0.1109
3447.00,0.1113
3446.00,0.1117
3445.00,0.1121
3444.00,0.1125
3443.00,0.1129
3442.00,0.1133
3441.00,0.1137
3440.00,0.1141
3439.00,0.1145
3438.00,0.1150
3437.00,0.1154
3436.00,0.1158
3435.00,0.1161
3434.00,0.1164
3433.00,0.1168
3432.00,0.1171
3431.00,0.1175
3430.00,0.1179
3429.00,0.1183
3428.00,0.1186
3427.00,0.1190
3426.00,0.1193
3425.00,0.1196
3424.00,0.1200
3423.00,0.1204
3422.00,0.1207
3421.00,0.1210
3420.00,0.1213
3419.00,0.1216
3418.00,0.1219
3417.00,0.1223
3416.00,0.1226
3415.00,0.1229
3414.00,0.1233
3413.00,0.1236
3412.00,0.1239
3411.00,0.1242
3410.00,0.1245
3409.00,0.1248
3408.00,0.1251
3407.00,0.1254
3406.00,0.1257
3405.00,0.1260
3404.00,0.1263
3403.00,0.1266
3402.00,0.1269
3401.00,0.1272
3400.00,0.1274
3399.00,0.1275
3398.00,0.1277
3397.00,0.1279
3396.00,0.1282
3395.00,0.1284
3394.00,0.1287
3393.00,0.1290
3392.00,0.1292
3391.00,0.1294
3390.00,0.1296
3389.00,0.1297
3388.00,0.1298
3387.00,0.1300
3386.00,0.1302
3385.00,0.1304
3384.00,0.1306
3383.00,0.1308
3382.00,0.1310
3381.00,0.1312
3380.00,0.1313
3379.00,0.1315
3378.00,0.1316
3377.00,0.1318
3376.00,0.1319
3375.00,0.1320
3374.00,0.1321
3373.00,0.1322
3372.00,0.1323
3371.00,0.1325
3370.00,0.1327
3369.00,0.1328
3368.00,0.1329
3367.00,0.1330
3366.00,0.1330
3365.00,0.1331
3364.00,0.1331
3363.00,0.1332
3362.00,0.1332
3361.00,0.1333
3360.00,0.1334
3359.00,0.1335
3358.00,0.1335
3357.00,0.1335
3356.00,0.1336
3355.00,0.1336
3354.00,0.1337
3353.00,0.1337
3352.00,0.1338
3351.00,0.1338
3350.00,0.1338
3349.00,0.1338
3348.00,0.1338
3347.00,0.1338
3346.00,0.1338
3345.00,0.1339
3344.00,0.1340
3343.00,0.1340
3342.00,0.1340
3341.00,0.1340
3340.00,0.1340
3339.00,0.1340
3338.00,0.1339
3337.00,0.1339
3336.00,0.1338
3335.00,0.1338
3334.00,0.1337
3333.00,0.1337
3332.00,0.1337
3331.00,0.1337
3330.00,0.1336
3329.00,0.1336
3328.00,0.1336
3327.00,0.1336
3326.00,0.1336
3325.00,0.1336
3324.00,0.1336
3323.00,0.1335
3322.00,0.1335
3321.00,0.1335
3320.00,0.1334
3319.00,0.1334
3318.00,0.1334
3317.00,0.1333
3316.00,0.1333
3315.00,0.1332
3314.00,0.1331
3313.00,0.1331
3312.00,0.1331
3311.00,0.1331
3310.00,0.1331
3309.00,0.1330
3308.00,0.1329
3307.00,0.1328
3306.00,0.1328
3305.00,0.1327
3304.00,0.1327
3303.00,0.1326
3302.00,0.1325
3301.00,0.1324
3300.00,0.1322
3299.00,0.1321
3298.00,0.1320
3297.00,0.1319
3296.00,0.1318
3295.00,0.1317
3294.00,0.1317
3293.00,0.1316
3292.00,0.1315
3291.00,0.1314
3290.00,0.1312
3289.00,0.1311
3288.00,0.1310
3287.00,0.1308
3286.00,0.1307
3285.00,0.1306
3284.00,0.1305
3283.00,0.1303
3282.00,0.1301
3281.00,0.1299
3280.00,0.1297
3279.00,0.1295
3278.00,0.1293
3277.00,0.1291
3276.00,0.1289
3275.00,0.1287
3274.00,0.1285
3273.00,0.1282
3272.00,0.1280
3271.00,0.1278
3270.00,0.1276
3269.00,0.1273
3268.00,0.1271
3267.00,0.1268
3266.00,0.1265
3265.00,0.1262
3264.00,0.1260
3263.00,0.1257
3262.00,0.1254
3261.00,0.1251
3260.00,0.1248
3259.00,0.1245
3258.00,0.1242
3257.00,0.1239
3256.00,0.1237
3255.00,0.1233
3254.00,0.1230
3253.00,0.1227
3252.00,0.1223
3251.00,0.1220
3250.00,0.1216
3249.00,0.1213
3248.00,0.1210
3247.00,0.1207
3246.00,0.1204
3245.00,0.1200
3244.00,0.1197
3243.00,0.1193
3242.00,0.1190
3241.00,0.1187
3240.00,0.1183
3239.00,0.1180
3238.00,0.1177
3237.00,0.1174
3236.00,0.1170
3235.00,0.1167
3234.00,0.1163
3233.00,0.1160
3232.00,0.1156
3231.00,0.1153
3230.00,0.1149
3229.00,0.1145
3228.00,0.1141
3227.00,0.1137
3226.00,0.1134
3225.00,0.1130
3224.00,0.1127
3223.00,0.1123
3222.00,0.1119
3221.00,0.1115
3220.00,0.1111
3219.00,0.1107
3218.00,0.1103
3217.00,0.1100
3216.00,0.1096
3215.00,0.1092
3214.00,0.1088
3213.00,0.1084
3212.00,0.1080
3211.00,0.1076
3210.00,0.1072
3209.00,0.1067
3208.00,0.1063
3207.00,0.1059
3206.00,0.1055
3205.00,0.1051
3204.00,0.1047
3203.00,0.1043
3202.00,0.1039
3201.00,0.1034
3200.00,0.1030
3199.00,0.1025
3198.00,0.1021
3197.00,0.1016
3196.00,0.1012
3195.00,0.1007
3194.00,0.1003
3193.00,0.0998
3192.00,0.0994
3191.00,0.0989
3190.00,0.0985
3189.00,0.0980
3188.00,0.0975
3187.00,0.0971
3186.00,0.0966
3185.00,0.0961
3184.00,0.0957
3183.00,0.0952
3182.00,0.0947
3181.00,0.0943
3180.00,0.0938
3179.00,0.0933
3178.00,0.0929
3177.00,0.0924
3176.00,0.0919
3175.00,0.0914
3174.00,0.0909
3173.00,0.0904
3172.00,0.0899
3171.00,0.0894
3170.00,0.0889
3169.00,0.0884
3168.00,0.0879
3167.00,0.0874
3166.00,0.0870
3165.00,0.0865
3164.00,0.0860
3163.00,0.0855
3162.00,0.0850
3161.00,0.0845
3160.00,0.0840
3159.00,0.0836
3158.00,0.0831
3157.00,0.0826
3156.00,0.0822
3155.00,0.0818
3154.00,0.0813
3153.00,0.0808
3152.00,0.0803
3151.00,0.0798
3150.00,0.0793
3149.00,0.0789
3148.00,0.0784
3147.00,0.0780
3146.00,0.0776
3145.00,0.0771
3144.00,0.0766
3143.00,0.0761
3142.00,0.0756
3141.00,0.0752
3140.00,0.0748
3139.00,0.0744
3138.00,0.0740
3137.00,0.0736
3136.00,0.0732
3135.00,0.0727
3134.00,0.0723
3133.00,0.0719
3132.00,0.0715
3131.00,0.0711
3130.00,0.0707
3129.00,0.0703
3128.00,0.0699
3127.00,0.0695
3126.00,0.0691
3125.00,0.0687
3124.00,0.0683
3123.00,0.0679
3122.00,0.0676
3121.00,0.0672
3120.00,0.0669
3119.00,0.0665
3118.00,0.0661
3117.00,0.0657
3116.00,0.0654
3115.00,0.0650
3114.00,0.0647
3113.00,0.0644
3112.00,0.0640
3111.00,0.0637
3110.00,0.0633
3109.00,0.0629
3108.00,0.0626
3107.00,0.0623
3106.00,0.0620
3105.00,0.0617
3104.00,0.0614
3103.00,0.0611
3102.00,0.0609
3101.00,0.0606
3100.00,0.0603
3099.00,0.0600
3098.00,0.0598
3097.00,0.0595
3096.00,0.0593
3095.00,0.0590
3094.00,0.0587
3093.00,0.0583
3092.00,0.0580
3091.00,0.0577
3090.00,0.0575
3089.00,0.0572
3088.00,0.0570
3087.00,0.0567
3086.00,0.0564
3085.00,0.0561
3084.00,0.0559
3083.00,0.0556
3082.00,0.0554
3081.00,0.0552
3080.00,0.0550
3079.00,0.0548
3078.00,0.0546
3077.00,0.0543
3076.00,0.0541
3075.00,0.0538
3074.00,0.0535
3073.00,0.0533
3072.00,0.0530
3071.00,0.0528
3070.00,0.0525
3069.00,0.0523
3068.00,0.0520
3067.00,0.0518
3066.00,0.0515
3065.00,0.0513
3064.00,0.0510
3063.00,0.0508
3062.00,0.0505
3061.00,0.0502
3060.00,0.0500
3059.00,0.0497
3058.00,0.0494
3057.00,0.0491
3056.00,0.0488
3055.00,0.0486
3054.00,0.0483
3053.00,0.0481
3052.00,0.0478
3051.00,0.0476
3050.00,0.0473
3049.00,0.0471
3048.00,0.0468
3047.00,0.0466
3046.00,0.0463
3045.00,0.0460
3044.00,0.0458
3043.00,0.0455
3042.00,0.0453
3041.00,0.0450
3040.00,0.0448
3039.00,0.0445
3038.00,0.0442
3037.00,0.0440
3036.00,0.0438
3035.00,0.0435
3034.00,0.0433
3033.00,0.0432
3032.00,0.0430
3031.00,0.0428
3030.00,0.0426
3029.00,0.0424
3028.00,0.0421
3027.00,0.0419
3026.00,0.0417
3025.00,0.0415
3024.00,0.0414
3023.00,0.0412
3022.00,0.0410
3021.00,0.0409
3020.00,0.0407
3019.00,0.0406
3018.00,0.0404
3017.00,0.0403
3016.00,0.0401
3015.00,0.0400
3014.00,0.0398
3013.00,0.0397
3012.00,0.0396
3011.00,0.0394
3010.00,0.0393
3009.00,0.0391
3008.00,0.0389
3007.00,0.0388
3006.00,0.0386
3005.00,0.0385
3004.00,0.0384
3003.00,0.0383
3002.00,0.0382
3001.00,0.0381
3000.00,0.0380
2999.00,0.0379
2998.00,0.0379
2997.00,0.0379
2996.00,0.0378
2995.00,0.0378
2994.00,0.0378
2993.00,0.0378
2992.00,0.0379
2991.00,0.0380
2990.00,0.0380
2989.00,0.0381
2988.00,0.0381
2987.00,0.0382
2986.00,0.0383
2985.00,0.0384
2984.00,0.0385
2983.00,0.0387
2982.00,0.0388
2981.00,0.0389
2980.00,0.0390
2979.00,0.0392
2978.00,0.0394
2977.00,0.0396
2976.00,0.0398
2975.00,0.0400
2974.00,0.0402
2973.00,0.0404
2972.00,0.0407
2971.00,0.0409
2970.00,0.0411
2969.00,0.0413
2968.00,0.0415
2967.00,0.0417
2966.00,0.0418
2965.00,0.0420
2964.00,0.0421
2963.00,0.0422
2962.00,0.0423
2961.00,0.0424
2960.00,0.0424
2959.00,0.0424
2958.00,0.0424
2957.00,0.0423
2956.00,0.0422
2955.00,0.0421
2954.00,0.0420
2953.00,0.0419
2952.00,0.0418
2951.00,0.0417
2950.00,0.0416
2949.00,0.0416
2948.00,0.0416
2947.00,0.0415
2946.00,0.0415
2945.00,0.0415
2944.00,0.0416
2943.00,0.0417
2942.00,0.0418
2941.00,0.0419
2940.00,0.0420
2939.00,0.0422
2938.00,0.0423
2937.00,0.0425
2936.00,0.0426
2935.00,0.0428
2934.00,0.0429
2933.00,0.0429
2932.00,0.0430
2931.00,0.0430
2930.00,0.0431
2929.00,0.0432
2928.00,0.0433
2927.00,0.0433
2926.00,0.0434
2925.00,0.0434
2924.00,0.0433
2923.00,0.0433
2922.00,0.0432
2921.00,0.0431
2920.00,0.0429
2919.00,0.0427
2918.00,0.0424
2917.00,0.0420
2916.00,0.0416
2915.00,0.0412
2914.00,0.0408
2913.00,0.0405
2912.00,0.0402
2911.00,0.0399
2910.00,0.0395
2909.00,0.0392
2908.00,0.0389
2907.00,0.0386
2906.00,0.0384
2905.00,0.0381
2904.00,0.0379
2903.00,0.0377
2902.00,0.0374
2901.00,0.0372
2900.00,0.0370
2899.00,0.0367
2898.00,0.0365
2897.00,0.0362
2896.00,0.0360
2895.00,0.0357
2894.00,0.0355
2893.00,0.0353
2892.00,0.0351
2891.00,0.0349
2890.00,0.0348
2889.00,0.0346
2888.00,0.0343
2887.00,0.0341
2886.00,0.0339
2885.00,0.0337
2884.00,0.0336
2883.00,0.0334
2882.00,0.0333
2881.00,0.0332
2880.00,0.0331
2879.00,0.0330
2878.00,0.0328
2877.00,0.0327
2876.00,0.0326
2875.00,0.0324
2874.00,0.0323
2873.00,0.0322
2872.00,0.0320
2871.00,0.0318
2870.00,0.0316
2869.00,0.0314
2868.00,0.0311
2867.00,0.0309
2866.00,0.0306
2865.00,0.0304
2864.00,0.0303
2863.00,0.0302
2862.00,0.0301
2861.00,0.0300
2860.00,0.0299
2859.00,0.0299
2858.00,0.0299
2857.00,0.0299
2856.00,0.0299
2855.00,0.0300
2854.00,0.0300
2853.00,0.0300
2852.00,0.0298
2851.00,0.0296
2850.00,0.0293
2849.00,0.0289
2848.00,0.0285
2847.00,0.0280
2846.00,0.0275
2845.00,0.0271
2844.00,0.0267
2843.00,0.0263
2842.00,0.0260
2841.00,0.0257
2840.00,0.0254
2839.00,0.0251
2838.00,0.0249
2837.00,0.0247
2836.00,0.0245
2835.00,0.0244
2834.00,0.0242
2833.00,0.0241
2832.00,0.0239
2831.00,0.0238
2830.00,0.0236
2829.00,0.0235
2828.00,0.0234
2827.00,0.0232
2826.00,0.0231
2825.00,0.0230
2824.00,0.0229
2823.00,0.0228
2822.00,0.0227
2821.00,0.0226
2820.00,0.0225
2819.00,0.0223
2818.00,0.0222
2817.00,0.0221
2816.00,0.0220
2815.00,0.0219
2814.00,0.0218
2813.00,0.0217
2812.00,0.0216
2811.00,0.0215
2810.00,0.0214
2809.00,0.0213
2808.00,0.0212
2807.00,0.0211
2806.00,0.0211
2805.00,0.0210
2804.00,0.0209
2803.00,0.0208
2802.00,0.0208
2801.00,0.0207
2800.00,0.0206
2799.00,0.0205
2798.00,0.0204
2797.00,0.0203
2796.00,0.0202
2795.00,0.0202
2794.00,0.0201
2793.00,0.0200
2792.00,0.0199
2791.00,0.0198
2790.00,0.0198
2789.00,0.0197
2788.00,0.0197
2787.00,0.0196
2786.00,0.0196
2785.00,0.0195
2784.00,0.0195
2783.00,0.0194
2782.00,0.0193
2781.00,0.0192
2780.00,0.0192
2779.00,0.0191
2778.00,0.0190
2777.00,0.0189
2776.00,0.0188
2775.00,0.0188
2774.00,0.0187
2773.00,0.0186
2772.00,0.0186
2771.00,0.0186
2770.00,0.0185
2769.00,0.0185
2768.00,0.0184
2767.00,0.0184
2766.00,0.0183
2765.00,0.0183
2764.00,0.0182
2763.00,0.0182
2762.00,0.0181
2761.00,0.0180
2760.00,0.0180
2759.00,0.0179
2758.00,0.0179
2757.00,0.0179
2756.00,0.0178
2755.00,0.0178
2754.00,0.0178
2753.00,0.0177
2752.00,0.0177
2751.00,0.0176
2750.00,0.0176
2749.00,0.0175
2748.00,0.0175
2747.00,0.0174
2746.00,0.0174
2745.00,0.0173
2744.00,0.0173
2743.00,0.0173
2742.00,0.0173
2741.00,0.0172
2740.00,0.0171
2739.00,0.0171
2738.00,0.0170
2737.00,0.0170
2736.00,0.0170
2735.00,0.0170
2734.00,0.0169
2733.00,0.0169
2732.00,0.0169
2731.00,0.0168
2730.00,0.0167
2729.00,0.0167
2728.00,0.0166
2727.00,0.0166
2726.00,0.0166
2725.00,0.0165
2724.00,0.0165
2723.00,0.0164
2722.00,0.0164
2721.00,0.0164
2720.00,0.0163
2719.00,0.0163
2718.00,0.0163
2717.00,0.0162
2716.00,0.0162
2715.00,0.0162
2714.00,0.0161
2713.00,0.0161
2712.00,0.0160
2711.00,0.0159
2710.00,0.0159
2709.00,0.0159
2708.00,0.0159
2707.00,0.0158
2706.00,0.0158
2705.00,0.0158
2704.00,0.0158
2703.00,0.0157
2702.00,0.0157
2701.00,0.0156
2700.00,0.0156
2699.00,0.0156
2698.00,0.0155
2697.00,0.0155
2696.00,0.0155
2695.00,0.0155
2694.00,0.0155
2693.00,0.0154
2692.00,0.0154
2691.00,0.0153
2690.00,0.0153
2689.00,0.0153
2688.00,0.0152
2687.00,0.0152
2686.00,0.0152
2685.00,0.0152
2684.00,0.0152
2683.00,0.0152
2682.00,0.0151
2681.00,0.0151
2680.00,0.0151
2679.00,0.0150
2678.00,0.0150
2677.00,0.0149
2676.00,0.0149
2675.00,0.0149
2674.00,0.0148
2673.00,0.0148
2672.00,0.0148
2671.00,0.0148
2670.00,0.0148
2669.00,0.0148
2668.00,0.0148
2667.00,0.0147
2666.00,0.0147
2665.00,0.0147
2664.00,0.0147
2663.00,0.0147
2662.00,0.0148
2661.00,0.0148
2660.00,0.0148
2659.00,0.0148
2658.00,0.0148
2657.00,0.0147
2656.00,0.0147
2655.00,0.0146
2654.00,0.0146
2653.00,0.0146
2652.00,0.0146
2651.00,0.0145
2650.00,0.0145
2649.00,0.0145
2648.00,0.0144
2647.00,0.0144
2646.00,0.0143
2645.00,0.0143
2644.00,0.0143
2643.00,0.0142
2642.00,0.0142
2641.00,0.0141
2640.00,0.0141
2639.00,0.0140
2638.00,0.0140
2637.00,0.0139
2636.00,0.0138
2635.00,0.0138
2634.00,0.0137
2633.00,0.0137
2632.00,0.0136
2631.00,0.0136
2630.00,0.0136
2629.00,0.0136
2628.00,0.0136
2627.00,0.0135
2626.00,0.0135
2625.00,0.0134
2624.00,0.0134
2623.00,0.0134
2622.00,0.0134
2621.00,0.0133
2620.00,0.0133
2619.00,0.0132
2618.00,0.0131
2617.00,0.0130
2616.00,0.0130
2615.00,0.0129
2614.00,0.0129
2613.00,0.0129
2612.00,0.0129
2611.00,0.0129
2610.00,0.0128
2609.00,0.0128
2608.00,0.0127
2607.00,0.0127
2606.00,0.0126
2605.00,0.0126
2604.00,0.0126
2603.00,0.0126
2602.00,0.0126
2601.00,0.0125
2600.00,0.0125
2599.00,0.0125
2598.00,0.0124
2597.00,0.0124
2596.00,0.0124
2595.00,0.0124
2594.00,0.0124
2593.00,0.0123
2592.00,0.0123
2591.00,0.0122
2590.00,0.0122
2589.00,0.0121
2588.00,0.0121
2587.00,0.0120
2586.00,0.0119
2585.00,0.0119
2584.00,0.0118
2583.00,0.0118
2582.00,0.0118
2581.00,0.0119
2580.00,0.0119
2579.00,0.0120
2578.00,0.0120
2577.00,0.0120
2576.00,0.0119
2575.00,0.0118
2574.00,0.0117
2573.00,0.0117
2572.00,0.0116
2571.00,0.0116
2570.00,0.0117
2569.00,0.0117
2568.00,0.0116
2567.00,0.0116
2566.00,0.0115
2565.00,0.0114
2564.00,0.0114
2563.00,0.0115
2562.00,0.0115
2561.00,0.0115
2560.00,0.0115
2559.00,0.0115
2558.00,0.0114
2557.00,0.0114
2556.00,0.0113
2555.00,0.0113
2554.00,0.0113
2553.00,0.0113
2552.00,0.0113
2551.00,0.0113
2550.00,0.0113
2549.00,0.0113
2548.00,0.0113
2547.00,0.0113
2546.00,0.0112
2545.00,0.0112
2544.00,0.0111
2543.00,0.0111
2542.00,0.0111
2541.00,0.0111
2540.00,0.0111
2539.00,0.0111
2538.00,0.0111
2537.00,0.0110
2536.00,0.0110
2535.00,0.0110
2534.00,0.0110
2533.00,0.0110
2532.00,0.0110
2531.00,0.0110
2530.00,0.0110
2529.00,0.0110
2528.00,0.0110
2527.00,0.0110
2526.00,0.0110
2525.00,0.0110
2524.00,0.0110
2523.00,0.0110
2522.00,0.0109
2521.00,0.0108
2520.00,0.0108
2519.00,0.0108
2518.00,0.0108
2517.00,0.0108
2516.00,0.0107
2515.00,0.0107
2514.00,0.0107
2513.00,0.0108
2512.00,0.0108
2511.00,0.0109
2510.00,0.0110
2509.00,0.0110
2508.00,0.0110
2507.00,0.0109
2506.00,0.0108
2505.00,0.0108
2504.00,0.0108
2503.00,0.0107
2502.00,0.0106
2501.00,0.0106
2500.00,0.0105
2499.00,0.0105
2498.00,0.0106
2497.00,0.0106
2496.00,0.0107
2495.00,0.0108
2494.00,0.0108
2493.00,0.0107
2492.00,0.0107
2491.00,0.0107
2490.00,0.0107
2489.00,0.0108
2488.00,0.0108
2487.00,0.0107
2486.00,0.0107
2485.00,0.0106
2484.00,0.0106
2483.00,0.0106
2482.00,0.0106
2481.00,0.0105
2480.00,0.0105
2479.00,0.0105
2478.00,0.0105
2477.00,0.0104
2476.00,0.0104
2475.00,0.0104
2474.00,0.0104
2473.00,0.0104
2472.00,0.0104
2471.00,0.0104
2470.00,0.0104
2469.00,0.0103
2468.00,0.0103
2467.00,0.0104
2466.00,0.0104
2465.00,0.0104
2464.00,0.0104
2463.00,0.0104
2462.00,0.0104
2461.00,0.0105
2460.00,0.0106
2459.00,0.0106
2458.00,0.0106
2457.00,0.0106
2456.00,0.0105
2455.00,0.0105
2454.00,0.0105
2453.00,0.0104
2452.00,0.0104
2451.00,0.0104
2450.00,0.0104
2449.00,0.0104
2448.00,0.0104
2447.00,0.0103
2446.00,0.0103
2445.00,0.0103
2444.00,0.0102
2443.00,0.0102
2442.00,0.0102
2441.00,0.0103
2440.00,0.0103
2439.00,0.0103
2438.00,0.0103
2437.00,0.0102
2436.00,0.0102
2435.00,0.0102
2434.00,0.0101
2433.00,0.0100
2432.00,0.0100
2431.00,0.0100
2430.00,0.0100
2429.00,0.0100
2428.00,0.0100
2427.00,0.0100
2426.00,0.0101
2425.00,0.0101
2424.00,0.0101
2423.00,0.0101
2422.00,0.0101
2421.00,0.0100
2420.00,0.0100
2419.00,0.0100
2418.00,0.0100
2417.00,0.0100
2416.00,0.0100
2415.00,0.0100
2414.00,0.0100
2413.00,0.0100
2412.00,0.0100
2411.00,0.0101
2410.00,0.0101
2409.00,0.0100
2408.00,0.0100
2407.00,0.0099
2406.00,0.0099
2405.00,0.0099
2404.00,0.0099
2403.00,0.0099
2402.00,0.0099
2401.00,0.0099
2400.00,0.0099
2399.00,0.0098
2398.00,0.0098
2397.00,0.0098
2396.00,0.0098
2395.00,0.0098
2394.00,0.0099
2393.00,0.0099
2392.00,0.0100
2391.00,0.0100
2390.00,0.0100
2389.00,0.0100
2388.00,0.0099
2387.00,0.0099
2386.00,0.0099
2385.00,0.0099
2384.00,0.0099
2383.00,0.0098
2382.00,0.0098
2381.00,0.0098
2380.00,0.0098
2379.00,0.0098
2378.00,0.0097
2377.00,0.0097
2376.00,0.0098
2375.00,0.0098
2374.00,0.0099
2373.00,0.0099
2372.00,0.0099
2371.00,0.0098
2370.00,0.0098
2369.00,0.0098
2368.00,0.0098
2367.00,0.0097
2366.00,0.0097
2365.00,0.0098
2364.00,0.0099
2363.00,0.0101
2362.00,0.0101
2361.00,0.0101
2360.00,0.0101
2359.00,0.0101
2358.00,0.0101
2357.00,0.0101
2356.00,0.0101
2355.00,0.0102
2354.00,0.0102
2353.00,0.0102
2352.00,0.0102
2351.00,0.0102
2350.00,0.0102
2349.00,0.0102
2348.00,0.0103
2347.00,0.0105
2346.00,0.0106
2345.00,0.0106
2344.00,0.0106
2343.00,0.0105
2342.00,0.0106
2341.00,0.0107
2340.00,0.0107
2339.00,0.0107
2338.00,0.0107
2337.00,0.0107
2336.00,0.0107
2335.00,0.0107
2334.00,0.0107
2333.00,0.0107
2332.00,0.0106
2331.00,0.0106
2330.00,0.0106
2329.00,0.0106
2328.00,0.0109
2327.00,0.0112
2326.00,0.0117
2325.00,0.0121
2324.00,0.0123
2323.00,0.0122
2322.00,0.0121
2321.00,0.0118
2320.00,0.0116
2319.00,0.0115
2318.00,0.0114
2317.00,0.0114
2316.00,0.0114
2315.00,0.0114
2314.00,0.0114
2313.00,0.0114
2312.00,0.0113
2311.00,0.0113
2310.00,0.0113
2309.00,0.0112
2308.00,0.0112
2307.00,0.0111
2306.00,0.0111
2305.00,0.0111
2304.00,0.0111
2303.00,0.0112
2302.00,0.0112
2301.00,0.0113
2300.00,0.0113
2299.00,0.0114
2298.00,0.0114
2297.00,0.0115
2296.00,0.0115
2295.00,0.0116
2294.00,0.0116
2293.00,0.0116
2292.00,0.0117
2291.00,0.0118
2290.00,0.0119
2289.00,0.0120
2288.00,0.0119
2287.00,0.0119
2286.00,0.0119
2285.00,0.0120
2284.00,0.0120
2283.00,0.0121
2282.00,0.0120
2281.00,0.0120
2280.00,0.0120
2279.00,0.0119
2278.00,0.0118
2277.00,0.0117
2276.00,0.0116
2275.00,0.0115
2274.00,0.0115
2273.00,0.0115
2272.00,0.0115
2271.00,0.0115
2270.00,0.0114
2269.00,0.0115
2268.00,0.0115
2267.00,0.0115
2266.00,0.0114
2265.00,0.0113
2264.00,0.0112
2263.00,0.0111
2262.00,0.0110
2261.00,0.0109
2260.00,0.0110
2259.00,0.0110
2258.00,0.0111
2257.00,0.0112
2256.00,0.0112
2255.00,0.0111
2254.00,0.0110
2253.00,0.0110
2252.00,0.0109
2251.00,0.0109
2250.00,0.0109
2249.00,0.0110
2248.00,0.0111
2247.00,0.0111
2246.00,0.0111
2245.00,0.0110
2244.00,0.0110
2243.00,0.0110
2242.00,0.0110
2241.00,0.0111
2240.00,0.0111
2239.00,0.0110
2238.00,0.0109
2237.00,0.0108
2236.00,0.0108
2235.00,0.0109
2234.00,0.0109
2233.00,0.0109
2232.00,0.0109
2231.00,0.0108
2230.00,0.0108
2229.00,0.0109
2228.00,0.0109
2227.00,0.0109
2226.00,0.0109
2225.00,0.0109
2224.00,0.0108
2223.00,0.0107
2222.00,0.0107
2221.00,0.0107
2220.00,0.0108
2219.00,0.0108
2218.00,0.0109
2217.00,0.0109
2216.00,0.0108
2215.00,0.0107
2214.00,0.0107
2213.00,0.0106
2212.00,0.0106
2211.00,0.0107
2210.00,0.0108
2209.00,0.0109
2208.00,0.0109
2207.00,0.0109
2206.00,0.0108
2205.00,0.0107
2204.00,0.0106
2203.00,0.0105
2202.00,0.0104
2201.00,0.0104
2200.00,0.0104
2199.00,0.0105
2198.00,0.0105
2197.00,0.0105
2196.00,0.0105
2195.00,0.0104
2194.00,0.0102
2193.00,0.0101
2192.00,0.0101
2191.00,0.0102
2190.00,0.0103
2189.00,0.0105
2188.00,0.0107
2187.00,0.0108
2186.00,0.0108
2185.00,0.0107
2184.00,0.0106
2183.00,0.0105
2182.00,0.0103
2181.00,0.0101
2180.00,0.0100
2179.00,0.0099
2178.00,0.0098
2177.00,0.0099
2176.00,0.0101
2175.00,0.0103
2174.00,0.0105
2173.00,0.0106
2172.00,0.0107
2171.00,0.0107
2170.00,0.0108
2169.00,0.0109
2168.00,0.0110
2167.00,0.0110
2166.00,0.0109
2165.00,0.0108
2164.00,0.0107
2163.00,0.0107
2162.00,0.0106
2161.00,0.0102
2160.00,0.0091
2159.00,0.0076
2158.00,0.0063
2157.00,0.0058
2156.00,0.0060
2155.00,0.0064
2154.00,0.0067
2153.00,0.0070
2152.00,0.0074
2151.00,0.0077
2150.00,0.0081
2149.00,0.0085
2148.00,0.0088
2147.00,0.0089
2146.00,0.0089
2145.00,0.0088
2144.00,0.0088
2143.00,0.0086
2142.00,0.0085
2141.00,0.0083
2140.00,0.0083
2139.00,0.0084
2138.00,0.0086
2137.00,0.0088
2136.00,0.0089
2135.00,0.0088
2134.00,0.0086
2133.00,0.0085
2132.00,0.0086
2131.00,0.0088
2130.00,0.0090
2129.00,0.0093
2128.00,0.0096
2127.00,0.0099
2126.00,0.0100
2125.00,0.0102
2124.00,0.0104
2123.00,0.0105
2122.00,0.0107
2121.00,0.0107
2120.00,0.0107
2119.00,0.0106
2118.00,0.0106
2117.00,0.0107
2116.00,0.0109
2115.00,0.0111
2114.00,0.0112
2113.00,0.0112
2112.00,0.0112
2111.00,0.0112
2110.00,0.0112
2109.00,0.0112
2108.00,0.0112
2107.00,0.0112
2106.00,0.0112
2105.00,0.0113
2104.00,0.0113
2103.00,0.0114
2102.00,0.0114
2101.00,0.0113
2100.00,0.0113
2099.00,0.0112
2098.00,0.0112
2097.00,0.0110
2096.00,0.0108
2095.00,0.0106
2094.00,0.0104
2093.00,0.0104
2092.00,0.0105
2091.00,0.0106
2090.00,0.0107
2089.00,0.0107
2088.00,0.0107
2087.00,0.0106
2086.00,0.0107
2085.00,0.0108
2084.00,0.0109
2083.00,0.0109
2082.00,0.0108
2081.00,0.0109
2080.00,0.0110
2079.00,0.0111
2078.00,0.0112
2077.00,0.0112
2076.00,0.0111
2075.00,0.0108
2074.00,0.0106
2073.00,0.0105
2072.00,0.0105
2071.00,0.0106
2070.00,0.0106
2069.00,0.0106
2068.00,0.0105
2067.00,0.0103
2066.00,0.0102
2065.00,0.0101
2064.00,0.0100
2063.00,0.0100
2062.00,0.0099
2061.00,0.0097
2060.00,0.0096
2059.00,0.0095
2058.00,0.0096
2057.00,0.0096
2056.00,0.0096
2055.00,0.0096
2054.00,0.0096
2053.00,0.0098
2052.00,0.0102
2051.00,0.0104
2050.00,0.0104
2049.00,0.0100
2048.00,0.0097
2047.00,0.0094
2046.00,0.0093
2045.00,0.0092
2044.00,0.0092
2043.00,0.0091
2042.00,0.0089
2041.00,0.0089
2040.00,0.0089
2039.00,0.0090
2038.00,0.0091
2037.00,0.0090
2036.00,0.0086
2035.00,0.0082
2034.00,0.0078
2033.00,0.0077
2032.00,0.0078
2031.00,0.0079
2030.00,0.0078
2029.00,0.0076
2028.00,0.0073
2027.00,0.0070
2026.00,0.0069
2025.00,0.0069
2024.00,0.0072
2023.00,0.0074
2022.00,0.0076
2021.00,0.0078
2020.00,0.0080
2019.00,0.0079
2018.00,0.0077
2017.00,0.0075
2016.00,0.0074
2015.00,0.0076
2014.00,0.0077
2013.00,0.0077
2012.00,0.0076
2011.00,0.0074
2010.00,0.0073
2009.00,0.0074
2008.00,0.0074
2007.00,0.0072
2006.00,0.0068
2005.00,0.0066
2004.00,0.0066
2003.00,0.0067
2002.00,0.0068
2001.00,0.0071
2000.00,0.0076
1999.00,0.0079
1998.00,0.0081
1997.00,0.0082
1996.00,0.0082
1995.00,0.0082
1994.00,0.0082
1993.00,0.0083
1992.00,0.0085
1991.00,0.0086
1990.00,0.0086
1989.00,0.0085
1988.00,0.0084
1987.00,0.0082
1986.00,0.0081
1985.00,0.0082
1984.00,0.0085
1983.00,0.0087
1982.00,0.0090
1981.00,0.0092
1980.00,0.0091
1979.00,0.0088
1978.00,0.0083
1977.00,0.0079
1976.00,0.0075
1975.00,0.0071
1974.00,0.0070
1973.00,0.0071
1972.00,0.0073
1971.00,0.0073
1970.00,0.0072
1969.00,0.0070
1968.00,0.0070
1967.00,0.0069
1966.00,0.0068
1965.00,0.0069
1964.00,0.0070
1963.00,0.0072
1962.00,0.0072
1961.00,0.0070
1960.00,0.0068
1959.00,0.0066
1958.00,0.0065
1957.00,0.0067
1956.00,0.0070
1955.00,0.0073
1954.00,0.0073
1953.00,0.0072
1952.00,0.0072
1951.00,0.0072
1950.00,0.0072
1949.00,0.0073
1948.00,0.0074
1947.00,0.0074
1946.00,0.0074
1945.00,0.0074
1944.00,0.0074
1943.00,0.0073
1942.00,0.0072
1941.00,0.0072
1940.00,0.0073
1939.00,0.0074
1938.00,0.0074
1937.00,0.0074
1936.00,0.0075
1935.00,0.0075
1934.00,0.0075
1933.00,0.0074
1932.00,0.0074
1931.00,0.0074
1930.00,0.0075
1929.00,0.0076
1928.00,0.0076
1927.00,0.0076
1926.00,0.0076
1925.00,0.0075
1924.00,0.0075
1923.00,0.0076
1922.00,0.0077
1921.00,0.0078
1920.00,0.0079
1919.00,0.0079
1918.00,0.0078
1917.00,0.0078
1916.00,0.0078
1915.00,0.0078
1914.00,0.0078
1913.00,0.0078
1912.00,0.0078
1911.00,0.0078
1910.00,0.0077
1909.00,0.0077
1908.00,0.0077
1907.00,0.0077
1906.00,0.0077
1905.00,0.0076
1904.00,0.0076
1903.00,0.0075
1902.00,0.0075
1901.00,0.0076
1900.00,0.0076
1899.00,0.0077
1898.00,0.0076
1897.00,0.0077
1896.00,0.0077
1895.00,0.0077
1894.00,0.0076
1893.00,0.0074
1892.00,0.0073
1891.00,0.0073
1890.00,0.0073
1889.00,0.0073
1888.00,0.0073
1887.00,0.0073
1886.00,0.0073
1885.00,0.0073
1884.00,0.0073
1883.00,0.0073
1882.00,0.0072
1881.00,0.0073
1880.00,0.0073
1879.00,0.0072
1878.00,0.0072
1877.00,0.0071
1876.00,0.0072
1875.00,0.0072
1874.00,0.0072
1873.00,0.0072
1872.00,0.0072
1871.00,0.0072
1870.00,0.0072
1869.00,0.0072
1868.00,0.0072
1867.00,0.0072
1866.00,0.0072
1865.00,0.0072
1864.00,0.0072
1863.00,0.0071
1862.00,0.0070
1861.00,0.0070
1860.00,0.0070
1859.00,0.0070
1858.00,0.0070
1857.00,0.0071
1856.00,0.0071
1855.00,0.0071
1854.00,0.0071
1853.00,0.0071
1852.00,0.0071
1851.00,0.0070
1850.00,0.0069
1849.00,0.0068
1848.00,0.0068
1847.00,0.0068
1846.00,0.0069
1845.00,0.0070
1844.00,0.0070
1843.00,0.0069
1842.00,0.0068
1841.00,0.0068
1840.00,0.0068
1839.00,0.0069
1838.00,0.0070
1837.00,0.0070
1836.00,0.0071
1835.00,0.0071
1834.00,0.0071
1833.00,0.0071
1832.00,0.0071
1831.00,0.0071
1830.00,0.0071
1829.00,0.0071
1828.00,0.0070
1827.00,0.0070
1826.00,0.0070
1825.00,0.0069
1824.00,0.0069
1823.00,0.0069
1822.00,0.0069
1821.00,0.0070
1820.00,0.0070
1819.00,0.0070
1818.00,0.0069
1817.00,0.0068
1816.00,0.0068
1815.00,0.0068
1814.00,0.0069
1813.00,0.0069
1812.00,0.0070
1811.00,0.0070
1810.00,0.0070
1809.00,0.0071
1808.00,0.0071
1807.00,0.0070
1806.00,0.0070
1805.00,0.0070
1804.00,0.0069
1803.00,0.0069
1802.00,0.0069
1801.00,0.0069
1800.00,0.0070
1799.00,0.0070
1798.00,0.0070
1797.00,0.0069
1796.00,0.0069
1795.00,0.0069
1794.00,0.0069
1793.00,0.0069
1792.00,0.0069
1791.00,0.0069
1790.00,0.0069
1789.00,0.0069
1788.00,0.0070
1787.00,0.0070
1786.00,0.0069
1785.00,0.0069
1784.00,0.0069
1783.00,0.0069
1782.00,0.0069
1781.00,0.0069
1780.00,0.0069
1779.00,0.0069
1778.00,0.0069
1777.00,0.0068
1776.00,0.0068
1775.00,0.0068
1774.00,0.0069
1773.00,0.0070
1772.00,0.0070
1771.00,0.0070
1770.00,0.0069
1769.00,0.0069
1768.00,0.0069
1767.00,0.0069
1766.00,0.0068
1765.00,0.0069
1764.00,0.0069
1763.00,0.0069
1762.00,0.0069
1761.00,0.0069
1760.00,0.0070
1759.00,0.0072
1758.00,0.0073
1757.00,0.0075
1756.00,0.0077
1755.00,0.0079
1754.00,0.0080
1753.00,0.0082
1752.00,0.0084
1751.00,0.0087
1750.00,0.0089
1749.00,0.0092
1748.00,0.0096
1747.00,0.0099
1746.00,0.0101
1745.00,0.0103
1744.00,0.0105
1743.00,0.0106
1742.00,0.0108
1741.00,0.0110
1740.00,0.0113
1739.00,0.0114
1738.00,0.0114
1737.00,0.0114
1736.00,0.0114
1735.00,0.0116
1734.00,0.0117
1733.00,0.0117
1732.00,0.0118
1731.00,0.0119
1730.00,0.0121
1729.00,0.0122
1728.00,0.0124
1727.00,0.0126
1726.00,0.0127
1725.00,0.0129
1724.00,0.0131
1723.00,0.0133
1722.00,0.0134
1721.00,0.0135
1720.00,0.0137
1719.00,0.0139
1718.00,0.0141
1717.00,0.0144
1716.00,0.0148
1715.00,0.0152
1714.00,0.0155
1713.00,0.0159
1712.00,0.0163
1711.00,0.0167
1710.00,0.0171
1709.00,0.0175
1708.00,0.0180
1707.00,0.0186
1706.00,0.0193
1705.00,0.0199
1704.00,0.0205
1703.00,0.0210
1702.00,0.0216
1701.00,0.0228
1700.00,0.0243
1699.00,0.0256
1698.00,0.0266
1697.00,0.0277
1696.00,0.0292
1695.00,0.0309
1694.00,0.0324
1693.00,0.0337
1692.00,0.0351
1691.00,0.0365
1690.00,0.0380
1689.00,0.0395
1688.00,0.0410
1687.00,0.0423
1686.00,0.0437
1685.00,0.0456
1684.00,0.0481
1683.00,0.0505
1682.00,0.0523
1681.00,0.0538
1680.00,0.0553
1679.00,0.0568
1678.00,0.0582
1677.00,0.0597
1676.00,0.0615
1675.00,0.0636
1674.00,0.0657
1673.00,0.0674
1672.00,0.0690
1671.00,0.0706
1670.00,0.0725
1669.00,0.0747
1668.00,0.0769
1667.00,0.0788
1666.00,0.0803
1665.00,0.0818
1664.00,0.0836
1663.00,0.0858
1662.00,0.0881
1661.00,0.0902
1660.00,0.0921
1659.00,0.0937
1658.00,0.0952
1657.00,0.0963
1656.00,0.0971
1655.00,0.0978
1654.00,0.0991
1653.00,0.1016
1652.00,0.1043
1651.00,0.1059
1650.00,0.1063
1649.00,0.1064
1648.00,0.1064
1647.00,0.1069
1646.00,0.1077
1645.00,0.1086
1644.00,0.1090
1643.00,0.1092
1642.00,0.1091
1641.00,0.1089
1640.00,0.1087
1639.00,0.1084
1638.00,0.1079
1637.00,0.1074
1636.00,0.1070
1635.00,0.1070
1634.00,0.1067
1633.00,0.1061
1632.00,0.1051
1631.00,0.1039
1630.00,0.1026
1629.00,0.1011
1628.00,0.0997
1627.00,0.0982
1626.00,0.0968
1625.00,0.0952
1624.00,0.0934
1623.00,0.0916
1622.00,0.0898
1621.00,0.0882
1620.00,0.0865
1619.00,0.0847
1618.00,0.0827
1617.00,0.0806
1616.00,0.0787
1615.00,0.0770
1614.00,0.0754
1613.00,0.0736
1612.00,0.0717
1611.00,0.0698
1610.00,0.0679
1609.00,0.0661
1608.00,0.0643
1607.00,0.0626
1606.00,0.0611
1605.00,0.0596
1604.00,0.0580
1603.00,0.0565
1602.00,0.0551
1601.00,0.0537
1600.00,0.0523
1599.00,0.0511
1598.00,0.0499
1597.00,0.0487
1596.00,0.0475
1595.00,0.0464
1594.00,0.0454
1593.00,0.0445
1592.00,0.0436
1591.00,0.0427
1590.00,0.0418
1589.00,0.0410
1588.00,0.0403
1587.00,0.0396
1586.00,0.0391
1585.00,0.0385
1584.00,0.0380
1583.00,0.0376
1582.00,0.0372
1581.00,0.0368
1580.00,0.0364
1579.00,0.0361
1578.00,0.0358
1577.00,0.0357
1576.00,0.0357
1575.00,0.0358
1574.00,0.0359
1573.00,0.0359
1572.00,0.0358
1571.00,0.0357
1570.00,0.0359
1569.00,0.0362
1568.00,0.0364
1567.00,0.0367
1566.00,0.0369
1565.00,0.0372
1564.00,0.0375
1563.00,0.0376
1562.00,0.0377
1561.00,0.0378
1560.00,0.0383
1559.00,0.0394
1558.00,0.0408
1557.00,0.0418
1556.00,0.0424
1555.00,0.0428
1554.00,0.0432
1553.00,0.0437
1552.00,0.0441
1551.00,0.0443
1550.00,0.0446
1549.00,0.0449
1548.00,0.0451
1547.00,0.0451
1546.00,0.0449
1545.00,0.0446
1544.00,0.0443
1543.00,0.0440
1542.00,0.0438
1541.00,0.0435
1540.00,0.0432
1539.00,0.0429
1538.00,0.0425
1537.00,0.0420
1536.00,0.0412
1535.00,0.0404
1534.00,0.0395
1533.00,0.0386
1532.00,0.0379
1531.00,0.0373
1530.00,0.0366
1529.00,0.0358
1528.00,0.0350
1527.00,0.0341
1526.00,0.0333
1525.00,0.0326
1524.00,0.0320
1523.00,0.0313
1522.00,0.0306
1521.00,0.0300
1520.00,0.0295
1519.00,0.0290
1518.00,0.0285
1517.00,0.0277
1516.00,0.0269
1515.00,0.0260
1514.00,0.0252
1513.00,0.0243
1512.00,0.0232
1511.00,0.0221
1510.00,0.0210
1509.00,0.0200
1508.00,0.0190
1507.00,0.0181
1506.00,0.0174
1505.00,0.0169
1504.00,0.0164
1503.00,0.0157
1502.00,0.0150
1501.00,0.0143
1500.00,0.0136
1499.00,0.0130
1498.00,0.0125
1497.00,0.0119
1496.00,0.0115
1495.00,0.0112
1494.00,0.0108
1493.00,0.0105
1492.00,0.0102
1491.00,0.0099
1490.00,0.0095
1489.00,0.0092
1488.00,0.0092
1487.00,0.0092
1486.00,0.0093
1485.00,0.0093
1484.00,0.0094
1483.00,0.0096
1482.00,0.0097
1481.00,0.0100
1480.00,0.0103
1479.00,0.0106
1478.00,0.0108
1477.00,0.0111
1476.00,0.0115
1475.00,0.0119
1474.00,0.0125
1473.00,0.0133
1472.00,0.0141
1471.00,0.0148
1470.00,0.0154
1469.00,0.0157
1468.00,0.0159
1467.00,0.0161
1466.00,0.0163
1465.00,0.0166
1464.00,0.0170
1463.00,0.0173
1462.00,0.0176
1461.00,0.0177
1460.00,0.0177
1459.00,0.0178
1458.00,0.0180
1457.00,0.0185
1456.00,0.0192
1455.00,0.0197
1454.00,0.0199
1453.00,0.0199
1452.00,0.0199
1451.00,0.0198
1450.00,0.0198
1449.00,0.0198
1448.00,0.0199
1447.00,0.0200
1446.00,0.0201
1445.00,0.0202
1444.00,0.0202
1443.00,0.0203
1442.00,0.0203
1441.00,0.0204
1440.00,0.0204
1439.00,0.0203
1438.00,0.0203
1437.00,0.0204
1436.00,0.0207
1435.00,0.0209
1434.00,0.0211
1433.00,0.0212
1432.00,0.0213
1431.00,0.0215
1430.00,0.0217
1429.00,0.0219
1428.00,0.0222
1427.00,0.0224
1426.00,0.0225
1425.00,0.0226
1424.00,0.0228
1423.00,0.0229
1422.00,0.0230
1421.00,0.0230
1420.00,0.0230
1419.00,0.0231
1418.00,0.0232
1417.00,0.0234
1416.00,0.0234
1415.00,0.0234
1414.00,0.0233
1413.00,0.0232
1412.00,0.0230
1411.00,0.0228
1410.00,0.0225
1409.00,0.0223
1408.00,0.0220
1407.00,0.0217
1406.00,0.0214
1405.00,0.0210
1404.00,0.0207
1403.00,0.0204
1402.00,0.0200
1401.00,0.0195
1400.00,0.0190
1399.00,0.0185
1398.00,0.0180
1397.00,0.0176
1396.00,0.0172
1395.00,0.0168
1394.00,0.0165
1393.00,0.0164
1392.00,0.0163
1391.00,0.0162
1390.00,0.0162
1389.00,0.0162
1388.00,0.0163
1387.00,0.0166
1386.00,0.0170
1385.00,0.0175
1384.00,0.0179
1383.00,0.0183
1382.00,0.0187
1381.00,0.0190
1380.00,0.0193
1379.00,0.0195
1378.00,0.0196
1377.00,0.0196
1376.00,0.0194
1375.00,0.0192
1374.00,0.0189
1373.00,0.0187
1372.00,0.0185
1371.00,0.0182
1370.00,0.0178
1369.00,0.0174
1368.00,0.0170
1367.00,0.0165
1366.00,0.0161
1365.00,0.0157
1364.00,0.0152
1363.00,0.0148
1362.00,0.0145
1361.00,0.0144
1360.00,0.0144
1359.00,0.0143
1358.00,0.0143
1357.00,0.0142
1356.00,0.0141
1355.00,0.0139
1354.00,0.0138
1353.00,0.0136
1352.00,0.0133
1351.00,0.0131
1350.00,0.0127
1349.00,0.0123
1348.00,0.0120
1347.00,0.0115
1346.00,0.0111
1345.00,0.0107
1344.00,0.0103
1343.00,0.0100
1342.00,0.0096
1341.00,0.0093
1340.00,0.0089
1339.00,0.0086
1338.00,0.0084
1337.00,0.0082
1336.00,0.0081
1335.00,0.0079
1334.00,0.0077
1333.00,0.0076
1332.00,0.0074
1331.00,0.0072
1330.00,0.0071
1329.00,0.0070
1328.00,0.0070
1327.00,0.0070
1326.00,0.0069
1325.00,0.0069
1324.00,0.0069
1323.00,0.0069
1322.00,0.0069
1321.00,0.0069
1320.00,0.0069
1319.00,0.0069
1318.00,0.0070
1317.00,0.0070
1316.00,0.0069
1315.00,0.0069
1314.00,0.0069
1313.00,0.0069
1312.00,0.0069
1311.00,0.0070
1310.00,0.0070
1309.00,0.0071
1308.00,0.0071
1307.00,0.0072
1306.00,0.0073
1305.00,0.0075
1304.00,0.0077
1303.00,0.0080
1302.00,0.0084
1301.00,0.0088
1300.00,0.0092
1299.00,0.0097
1298.00,0.0104
1297.00,0.0111
1296.00,0.0119
1295.00,0.0127
1294.00,0.0136
1293.00,0.0146
1292.00,0.0157
1291.00,0.0169
1290.00,0.0181
1289.00,0.0195
1288.00,0.0209
1287.00,0.0224
1286.00,0.0239
1285.00,0.0256
1284.00,0.0273
1283.00,0.0291
1282.00,0.0310
1281.00,0.0330
1280.00,0.0350
1279.00,0.0372
1278.00,0.0394
1277.00,0.0417
1276.00,0.0440
1275.00,0.0463
1274.00,0.0487
1273.00,0.0511
1272.00,0.0535
1271.00,0.0560
1270.00,0.0583
1269.00,0.0606
1268.00,0.0628
1267.00,0.0650
1266.00,0.0670
1265.00,0.0689
1264.00,0.0708
1263.00,0.0726
1262.00,0.0743
1261.00,0.0760
1260.00,0.0775
1259.00,0.0789
1258.00,0.0802
1257.00,0.0814
1256.00,0.0825
1255.00,0.0836
1254.00,0.0845
1253.00,0.0854
1252.00,0.0862
1251.00,0.0869
1250.00,0.0875
1249.00,0.0880
1248.00,0.0886
1247.00,0.0891
1246.00,0.0896
1245.00,0.0901
1244.00,0.0906
1243.00,0.0911
1242.00,0.0916
1241.00,0.0922
1240.00,0.0930
1239.00,0.0938
1238.00,0.0946
1237.00,0.0956
1236.00,0.0965
1235.00,0.0975
1234.00,0.0984
1233.00,0.0994
1232.00,0.1004
1231.00,0.1014
1230.00,0.1022
1229.00,0.1030
1228.00,0.1038
1227.00,0.1044
1226.00,0.1050
1225.00,0.1055
1224.00,0.1059
1223.00,0.1063
1222.00,0.1064
1221.00,0.1064
1220.00,0.1064
1219.00,0.1061
1218.00,0.1058
1217.00,0.1053
1216.00,0.1046
1215.00,0.1037
1214.00,0.1027
1213.00,0.1014
1212.00,0.1001
1211.00,0.0986
1210.00,0.0971
1209.00,0.0955
1208.00,0.0940
1207.00,0.0923
1206.00,0.0907
1205.00,0.0890
1204.00,0.0874
1203.00,0.0860
1202.00,0.0846
1201.00,0.0835
1200.00,0.0826
1199.00,0.0819
1198.00,0.0813
1197.00,0.0810
1196.00,0.0807
1195.00,0.0803
1194.00,0.0799
1193.00,0.0792
1192.00,0.0783
1191.00,0.0770
1190.00,0.0753
1189.00,0.0732
1188.00,0.0709
1187.00,0.0686
1186.00,0.0663
1185.00,0.0641
1184.00,0.0622
1183.00,0.0606
1182.00,0.0592
1181.00,0.0582
1180.00,0.0576
1179.00,0.0572
1178.00,0.0572
1177.00,0.0574
1176.00,0.0578
1175.00,0.0585
1174.00,0.0594
1173.00,0.0605
1172.00,0.0619
1171.00,0.0636
1170.00,0.0654
1169.00,0.0676
1168.00,0.0699
1167.00,0.0724
1166.00,0.0750
1165.00,0.0777
1164.00,0.0804
1163.00,0.0830
1162.00,0.0856
1161.00,0.0879
1160.00,0.0901
1159.00,0.0920
1158.00,0.0935
1157.00,0.0948
1156.00,0.0957
1155.00,0.0963
1154.00,0.0966
1153.00,0.0966
1152.00,0.0963
1151.00,0.0957
1150.00,0.0949
1149.00,0.0938
1148.00,0.0925
1147.00,0.0910
1146.00,0.0894
1145.00,0.0877
1144.00,0.0860
1143.00,0.0844
1142.00,0.0829
1141.00,0.0817
1140.00,0.0808
1139.00,0.0801
1138.00,0.0795
1137.00,0.0793
1136.00,0.0793
1135.00,0.0795
1134.00,0.0800
1133.00,0.0809
1132.00,0.0821
1131.00,0.0836
1130.00,0.0854
1129.00,0.0874
1128.00,0.0895
1127.00,0.0914
1126.00,0.0927
1125.00,0.0932
1124.00,0.0930
1123.00,0.0920
1122.00,0.0904
1121.00,0.0887
1120.00,0.0869
1119.00,0.0852
1118.00,0.0836
1117.00,0.0823
1116.00,0.0811
1115.00,0.0802
1114.00,0.0794
1113.00,0.0789
1112.00,0.0786
1111.00,0.0784
1110.00,0.0785
1109.00,0.0788
1108.00,0.0793
1107.00,0.0801
1106.00,0.0813
1105.00,0.0827
1104.00,0.0844
1103.00,0.0864
1102.00,0.0886
1101.00,0.0909
1100.00,0.0935
1099.00,0.0961
1098.00,0.0988
1097.00,0.1013
1096.00,0.1037
1095.00,0.1060
1094.00,0.1081
1093.00,0.1101
1092.00,0.1121
1091.00,0.1139
1090.00,0.1157
1089.00,0.1176
1088.00,0.1197
1087.00,0.1220
1086.00,0.1245
1085.00,0.1272
1084.00,0.1301
1083.00,0.1333
1082.00,0.1366
1081.00,0.1402
1080.00,0.1439
1079.00,0.1476
1078.00,0.1513
1077.00,0.1550
1076.00,0.1587
1075.00,0.1622
1074.00,0.1655
1073.00,0.1687
1072.00,0.1717
1071.00,0.1745
1070.00,0.1769
1069.00,0.1791
1068.00,0.1808
1067.00,0.1819
1066.00,0.1823
1065.00,0.1820
1064.00,0.1810
1063.00,0.1793
1062.00,0.1771
1061.00,0.1748
1060.00,0.1724
1059.00,0.1703
1058.00,0.1684
1057.00,0.1671
1056.00,0.1661
1055.00,0.1657
1054.00,0.1657
1053.00,0.1662
1052.00,0.1671
1051.00,0.1684
1050.00,0.1700
1049.00,0.1720
1048.00,0.1743
1047.00,0.1769
1046.00,0.1795
1045.00,0.1824
1044.00,0.1852
1043.00,0.1878
1042.00,0.1901
1041.00,0.1920
1040.00,0.1935
1039.00,0.1944
1038.00,0.1949
1037.00,0.1949
1036.00,0.1946
1035.00,0.1939
1034.00,0.1931
1033.00,0.1923
1032.00,0.1916
1031.00,0.1907
1030.00,0.1897
1029.00,0.1884
1028.00,0.1867
1027.00,0.1843
1026.00,0.1812
1025.00,0.1775
1024.00,0.1732
1023.00,0.1684
1022.00,0.1631
1021.00,0.1576
1020.00,0.1520
1019.00,0.1464
1018.00,0.1410
1017.00,0.1358
1016.00,0.1311
1015.00,0.1266
1014.00,0.1227
1013.00,0.1193
1012.00,0.1166
1011.00,0.1145
1010.00,0.1128
1009.00,0.1115
1008.00,0.1104
1007.00,0.1094
1006.00,0.1083
1005.00,0.1069
1004.00,0.1052
1003.00,0.1028
1002.00,0.0998
1001.00,0.0961
1000.00,0.0917
999.00,0.0871
998.00,0.0824
997.00,0.0781
996.00,0.0742
995.00,0.0708
994.00,0.0681
993.00,0.0658
992.00,0.0639
991.00,0.0622
990.00,0.0606
989.00,0.0590
988.00,0.0574
987.00,0.0557
986.00,0.0538
985.00,0.0520
984.00,0.0503
983.00,0.0487
982.00,0.0475
981.00,0.0465
980.00,0.0459
979.00,0.0456
978.00,0.0455
977.00,0.0455
976.00,0.0455
975.00,0.0456
974.00,0.0456
973.00,0.0456
972.00,0.0455
971.00,0.0452
970.00,0.0445
969.00,0.0433
968.00,0.0415
967.00,0.0391
966.00,0.0360
965.00,0.0325
964.00,0.0287
963.00,0.0249
962.00,0.0212
961.00,0.0178
960.00,0.0148
959.00,0.0122
958.00,0.0102
957.00,0.0086
956.00,0.0073
955.00,0.0065
954.00,0.0060
953.00,0.0058
952.00,0.0058
951.00,0.0061
950.00,0.0067
949.00,0.0076
948.00,0.0088
947.00,0.0103
946.00,0.0121
945.00,0.0143
944.00,0.0169
943.00,0.0200
942.00,0.0236
941.00,0.0278
940.00,0.0325
939.00,0.0377
938.00,0.0432
937.00,0.0490
936.00,0.0547
935.00,0.0603
934.00,0.0654
933.00,0.0701
932.00,0.0741
931.00,0.0774
930.00,0.0800
929.00,0.0820
928.00,0.0833
927.00,0.0839
926.00,0.0839
925.00,0.0834
924.00,0.0824
923.00,0.0810
922.00,0.0793
921.00,0.0774
920.00,0.0751
919.00,0.0726
918.00,0.0699
917.00,0.0670
916.00,0.0639
915.00,0.0607
914.00,0.0574
913.00,0.0539
912.00,0.0505
911.00,0.0471
910.00,0.0440
909.00,0.0411
908.00,0.0385
907.00,0.0361
906.00,0.0341
905.00,0.0324
904.00,0.0310
903.00,0.0298
902.00,0.0289
901.00,0.0282
900.00,0.0276
899.00,0.0272
898.00,0.0269
897.00,0.0269
896.00,0.0270
895.00,0.0270
894.00,0.0271
893.00,0.0272
892.00,0.0272
891.00,0.0272
890.00,0.0270
889.00,0.0266
888.00,0.0257
887.00,0.0244
886.00,0.0227
885.00,0.0207
884.00,0.0184
883.00,0.0159
882.00,0.0133
881.00,0.0109
880.00,0.0089
879.00,0.0074
878.00,0.0064
877.00,0.0060
876.00,0.0060
875.00,0.0063
874.00,0.0068
873.00,0.0073
872.00,0.0076
871.00,0.0078
870.00,0.0079
869.00,0.0079
868.00,0.0080
867.00,0.0082
866.00,0.0086
865.00,0.0091
864.00,0.0100
863.00,0.0112
862.00,0.0128
861.00,0.0146
860.00,0.0167
859.00,0.0191
858.00,0.0218
857.00,0.0249
856.00,0.0282
855.00,0.0318
854.00,0.0354
853.00,0.0390
852.00,0.0426
851.00,0.0459
850.00,0.0489
849.00,0.0514
848.00,0.0532
847.00,0.0544
846.00,0.0548
845.00,0.0544
844.00,0.0531
843.00,0.0510
842.00,0.0483
841.00,0.0452
840.00,0.0417
839.00,0.0381
838.00,0.0344
837.00,0.0309
836.00,0.0275
835.00,0.0244
834.00,0.0215
833.00,0.0189
832.00,0.0167
831.00,0.0147
830.00,0.0130
829.00,0.0115
828.00,0.0102
827.00,0.0091
826.00,0.0083
825.00,0.0077
824.00,0.0073
823.00,0.0071
822.00,0.0069
821.00,0.0067
820.00,0.0066
819.00,0.0065
818.00,0.0064
817.00,0.0064
816.00,0.0066
815.00,0.0068
814.00,0.0072
813.00,0.0077
812.00,0.0083
811.00,0.0091
810.00,0.0100
809.00,0.0109
808.00,0.0117
807.00,0.0123
806.00,0.0127
805.00,0.0131
804.00,0.0134
803.00,0.0136
802.00,0.0137
801.00,0.0136
800.00,0.0134
799.00,0.0131
798.00,0.0127
797.00,0.0122
796.00,0.0116
795.00,0.0108
794.00,0.0100
793.00,0.0093
792.00,0.0086
791.00,0.0080
790.00,0.0075
789.00,0.0071
788.00,0.0068
787.00,0.0066
786.00,0.0064
785.00,0.0063
784.00,0.0063
783.00,0.0064
782.00,0.0067
781.00,0.0071
780.00,0.0077
779.00,0.0084
778.00,0.0093
777.00,0.0102
776.00,0.0111
775.00,0.0118
774.00,0.0123
773.00,0.0126
772.00,0.0127
771.00,0.0125
770.00,0.0119
769.00,0.0111
768.00,0.0103
767.00,0.0095
766.00,0.0087
765.00,0.0081
764.00,0.0075
763.00,0.0069
762.00,0.0066
761.00,0.0063
760.00,0.0063
759.00,0.0063
758.00,0.0065
757.00,0.0069
756.00,0.0074
755.00,0.0081
754.00,0.0091
753.00,0.0104
752.00,0.0118
751.00,0.0134
750.00,0.0152
749.00,0.0173
748.00,0.0194
747.00,0.0215
746.00,0.0235
745.00,0.0251
744.00,0.0266
743.00,0.0279
742.00,0.0290
741.00,0.0300
740.00,0.0310
739.00,0.0318
738.00,0.0325
737.00,0.0330
736.00,0.0334
735.00,0.0334
734.00,0.0332
733.00,0.0328
732.00,0.0324
731.00,0.0319
730.00,0.0315
729.00,0.0312
728.00,0.0310
727.00,0.0309
726.00,0.0307
725.00,0.0304
724.00,0.0301
723.00,0.0297
722.00,0.0292
721.00,0.0287
720.00,0.0281
719.00,0.0276
718.00,0.0273
717.00,0.0272
716.00,0.0273
715.00,0.0277
714.00,0.0283
713.00,0.0291
712.00,0.0302
711.00,0.0315
710.00,0.0331
709.00,0.0348
708.00,0.0365
707.00,0.0383
706.00,0.0400
705.00,0.0416
704.00,0.0428
703.00,0.0436
702.00,0.0441
701.00,0.0443
700.00,0.0442
699.00,0.0437
698.00,0.0428
697.00,0.0415
696.00,0.0399
695.00,0.0381
694.00,0.0361
693.00,0.0341
692.00,0.0321
691.00,0.0299
690.00,0.0278
689.00,0.0259
688.00,0.0243
687.00,0.0229
686.00,0.0215
685.00,0.0203
684.00,0.0191
683.00,0.0180
682.00,0.0171
681.00,0.0164
680.00,0.0159
679.00,0.0156
678.00,0.0154
677.00,0.0154
676.00,0.0155
675.00,0.0157
674.00,0.0159
673.00,0.0161
672.00,0.0162
671.00,0.0161
670.00,0.0158
669.00,0.0157
668.00,0.0159
667.00,0.0166
666.00,0.0171
665.00,0.0173
664.00,0.0174
663.00,0.0178
662.00,0.0186
661.00,0.0198
660.00,0.0213
659.00,0.0228
658.00,0.0240
657.00,0.0244
656.00,0.0241
655.00,0.0230
654.00,0.0215
653.00,0.0200
652.00,0.0188
651.00,0.0178
650.00,0.0170
649.00,0.0163
648.00,0.0159
647.00,0.0159
646.00,0.0160
645.00,0.0162
644.00,0.0162
643.00,0.0156
642.00,0.0146
641.00,0.0135
640.00,0.0123
639.00,0.0114
638.00,0.0108
637.00,0.0105
636.00,0.0105
635.00,0.0107
634.00,0.0111
633.00,0.0116
632.00,0.0120
631.00,0.0122
630.00,0.0125
629.00,0.0130
628.00,0.0138
627.00,0.0149
626.00,0.0161
625.00,0.0173
624.00,0.0184
623.00,0.0195
622.00,0.0207
621.00,0.0220
620.00,0.0235
619.00,0.0250
618.00,0.0265
617.00,0.0281
616.00,0.0297
615.00,0.0312
614.00,0.0325
613.00,0.0338
612.00,0.0354
611.00,0.0372
610.00,0.0391
609.00,0.0410
608.00,0.0428
607.00,0.0447
606.00,0.0465
605.00,0.0483
604.00,0.0498
603.00,0.0508
602.00,0.0513
601.00,0.0515
600.00,0.0517
599.00,0.0519
598.00,0.0520
597.00,0.0520
596.00,0.0518
595.00,0.0513
594.00,0.0504
593.00,0.0494
592.00,0.0486
591.00,0.0480
590.00,0.0476
589.00,0.0474
588.00,0.0473
587.00,0.0474
586.00,0.0475
585.00,0.0478
584.00,0.0483
583.00,0.0490
582.00,0.0497
581.00,0.0503
580.00,0.0508
579.00,0.0510
578.00,0.0511
577.00,0.0510
576.00,0.0510
575.00,0.0509
574.00,0.0504
573.00,0.0497
572.00,0.0491
571.00,0.0484
570.00,0.0476
569.00,0.0467
568.00,0.0458
567.00,0.0448
566.00,0.0438
565.00,0.0427
564.00,0.0418
563.00,0.0410
562.00,0.0404
561.00,0.0400
560.00,0.0396
559.00,0.0391
558.00,0.0386
557.00,0.0380
556.00,0.0375
555.00,0.0369
554.00,0.0361
553.00,0.0353
552.00,0.0347
551.00,0.0347
550.00,0.0349
549.00,0.0353
548.00,0.0357
547.00,0.0361
546.00,0.0365
545.00,0.0370
544.00,0.0374
543.00,0.0378
542.00,0.0384
541.00,0.0390
540.00,0.0394
539.00,0.0394
538.00,0.0388
537.00,0.0382
536.00,0.0377
535.00,0.0373
534.00,0.0370
533.00,0.0365
532.00,0.0359
531.00,0.0351
530.00,0.0344
529.00,0.0338
528.00,0.0336
527.00,0.0335
526.00,0.0336
525.00,0.0337
524.00,0.0338
523.00,0.0340
522.00,0.0343
521.00,0.0347
520.00,0.0352
519.00,0.0354
518.00,0.0351
517.00,0.0344
516.00,0.0336
515.00,0.0328
514.00,0.0317
513.00,0.0306
512.00,0.0294
511.00,0.0282
510.00,0.0271
509.00,0.0261
508.00,0.0253
507.00,0.0245
506.00,0.0236
505.00,0.0230
504.00,0.0225
503.00,0.0218
502.00,0.0207
501.00,0.0196
500.00,0.0189
499.00,0.0186
498.00,0.0185
497.00,0.0186
496.00,0.0188
495.00,0.0189
494.00,0.0188
493.00,0.0185
492.00,0.0184
491.00,0.0183
490.00,0.0182
489.00,0.0181
488.00,0.0180
487.00,0.0177
486.00,0.0172
485.00,0.0168
484.00,0.0171
483.00,0.0180
482.00,0.0191
481.00,0.0202
480.00,0.0210
479.00,0.0213
478.00,0.0210
477.00,0.0202
476.00,0.0195
475.00,0.0191
474.00,0.0190
473.00,0.0192
472.00,0.0195
471.00,0.0195
470.00,0.0194
469.00,0.0193
468.00,0.0193
467.00,0.0190
466.00,0.0183
465.00,0.0174
464.00,0.0169
463.00,0.0165
462.00,0.0162
461.00,0.0160
460.00,0.0158
459.00,0.0156
458.00,0.0150
457.00,0.0153
456.00,0.0139
455.00,0.0117
454.00,0.0091
453.00,0.0070
452.00,0.0061
451.00,0.0060
450.00,0.0061
