Created as New Dataset,Sample 001 By Administrator Date Monday, June 09 2025
cm-1,A
4000.00,0.0033
3999.00,0.0033
3998.00,0.0033
3997.00,0.0033
3996.00,0.0033
3995.00,0.0033
3994.00,0.0033
3993.00,0.0033
3992.00,0.0033
3991.00,0.0033
3990.00,0.0033
3989.00,0.0033
3988.00,0.0034
3987.00,0.0034
3986.00,0.0034
3985.00,0.0034
3984.00,0.0033
3983.00,0.0033
3982.00,0.0033
3981.00,0.0033
3980.00,0.0034
3979.00,0.0034
3978.00,0.0034
3977.00,0.0034
3976.00,0.0034
3975.00,0.0034
3974.00,0.0034
3973.00,0.0034
3972.00,0.0034
3971.00,0.0034
3970.00,0.0034
3969.00,0.0034
3968.00,0.0034
3967.00,0.0034
3966.00,0.0034
3965.00,0.0034
3964.00,0.0034
3963.00,0.0034
3962.00,0.0034
3961.00,0.0034
3960.00,0.0035
3959.00,0.0035
3958.00,0.0035
3957.00,0.0035
3956.00,0.0035
3955.00,0.0035
3954.00,0.0036
3953.00,0.0036
3952.00,0.0036
3951.00,0.0036
3950.00,0.0036
3949.00,0.0036
3948.00,0.0036
3947.00,0.0036
3946.00,0.0036
3945.00,0.0036
3944.00,0.0036
3943.00,0.0035
3942.00,0.0035
3941.00,0.0034
3940.00,0.0034
3939.00,0.0035
3938.00,0.0035
3937.00,0.0035
3936.00,0.0036
3935.00,0.0036
3934.00,0.0037
3933.00,0.0037
3932.00,0.0037
3931.00,0.0036
3930.00,0.0035
3929.00,0.0035
3928.00,0.0035
3927.00,0.0035
3926.00,0.0035
3925.00,0.0035
3924.00,0.0035
3923.00,0.0035
3922.00,0.0036
3921.00,0.0036
3920.00,0.0037
3919.00,0.0037
3918.00,0.0037
3917.00,0.0037
3916.00,0.0036
3915.00,0.0036
3914.00,0.0035
3913.00,0.0035
3912.00,0.0034
3911.00,0.0034
3910.00,0.0034
3909.00,0.0034
3908.00,0.0034
3907.00,0.0035
3906.00,0.0035
3905.00,0.0036
3904.00,0.0037
3903.00,0.0038
3902.00,0.0038
3901.00,0.0038
3900.00,0.0038
3899.00,0.0037
3898.00,0.0037
3897.00,0.0036
3896.00,0.0036
3895.00,0.0035
3894.00,0.0035
3893.00,0.0036
3892.00,0.0035
3891.00,0.0035
3890.00,0.0035
3889.00,0.0035
3888.00,0.0036
3887.00,0.0037
3886.00,0.0038
3885.00,0.0037
3884.00,0.0037
3883.00,0.0037
3882.00,0.0037
3881.00,0.0037
3880.00,0.0036
3879.00,0.0036
3878.00,0.0036
3877.00,0.0037
3876.00,0.0037
3875.00,0.0038
3874.00,0.0037
3873.00,0.0037
3872.00,0.0037
3871.00,0.0037
3870.00,0.0037
3869.00,0.0037
3868.00,0.0036
3867.00,0.0037
3866.00,0.0038
3865.00,0.0039
3864.00,0.0039
3863.00,0.0038
3862.00,0.0037
3861.00,0.0037
3860.00,0.0037
3859.00,0.0037
3858.00,0.0035
3857.00,0.0034
3856.00,0.0033
3855.00,0.0034
3854.00,0.0035
3853.00,0.0036
3852.00,0.0036
3851.00,0.0038
3850.00,0.0038
3849.00,0.0039
3848.00,0.0038
3847.00,0.0038
3846.00,0.0037
3845.00,0.0037
3844.00,0.0037
3843.00,0.0037
3842.00,0.0037
3841.00,0.0037
3840.00,0.0038
3839.00,0.0038
3838.00,0.0038
3837.00,0.0038
3836.00,0.0038
3835.00,0.0038
3834.00,0.0038
3833.00,0.0037
3832.00,0.0037
3831.00,0.0037
3830.00,0.0037
3829.00,0.0037
3828.00,0.0037
3827.00,0.0036
3826.00,0.0035
3825.00,0.0035
3824.00,0.0036
3823.00,0.0037
3822.00,0.0039
3821.00,0.0039
3820.00,0.0038
3819.00,0.0038
3818.00,0.0038
3817.00,0.0038
3816.00,0.0038
3815.00,0.0037
3814.00,0.0037
3813.00,0.0036
3812.00,0.0036
3811.00,0.0035
3810.00,0.0035
3809.00,0.0035
3808.00,0.0035
3807.00,0.0036
3806.00,0.0036
3805.00,0.0036
3804.00,0.0038
3803.00,0.0039
3802.00,0.0039
3801.00,0.0039
3800.00,0.0039
3799.00,0.0039
3798.00,0.0040
3797.00,0.0039
3796.00,0.0038
3795.00,0.0037
3794.00,0.0036
3793.00,0.0036
3792.00,0.0035
3791.00,0.0035
3790.00,0.0035
3789.00,0.0035
3788.00,0.0035
3787.00,0.0035
3786.00,0.0036
3785.00,0.0036
3784.00,0.0036
3783.00,0.0037
3782.00,0.0037
3781.00,0.0038
3780.00,0.0038
3779.00,0.0037
3778.00,0.0036
3777.00,0.0036
3776.00,0.0037
3775.00,0.0037
3774.00,0.0038
3773.00,0.0038
3772.00,0.0038
3771.00,0.0039
3770.00,0.0039
3769.00,0.0040
3768.00,0.0040
3767.00,0.0041
3766.00,0.0041
3765.00,0.0041
3764.00,0.0041
3763.00,0.0041
3762.00,0.0041
3761.00,0.0042
3760.00,0.0042
3759.00,0.0042
3758.00,0.0041
3757.00,0.0042
3756.00,0.0042
3755.00,0.0042
3754.00,0.0043
3753.00,0.0044
3752.00,0.0045
3751.00,0.0046
3750.00,0.0047
3749.00,0.0047
3748.00,0.0048
3747.00,0.0048
3746.00,0.0049
3745.00,0.0049
3744.00,0.0049
3743.00,0.0048
3742.00,0.0048
3741.00,0.0048
3740.00,0.0049
3739.00,0.0049
3738.00,0.0050
3737.00,0.0051
3736.00,0.0051
3735.00,0.0050
3734.00,0.0049
3733.00,0.0049
3732.00,0.0049
3731.00,0.0049
3730.00,0.0049
3729.00,0.0049
3728.00,0.0050
3727.00,0.0050
3726.00,0.0050
3725.00,0.0050
3724.00,0.0050
3723.00,0.0050
3722.00,0.0050
3721.00,0.0050
3720.00,0.0050
3719.00,0.0050
3718.00,0.0050
3717.00,0.0050
3716.00,0.0050
3715.00,0.0051
3714.00,0.0052
3713.00,0.0054
3712.00,0.0056
3711.00,0.0057
3710.00,0.0058
3709.00,0.0059
3708.00,0.0059
3707.00,0.0060
3706.00,0.0060
3705.00,0.0061
3704.00,0.0061
3703.00,0.0062
3702.00,0.0062
3701.00,0.0062
3700.00,0.0062
3699.00,0.0063
3698.00,0.0064
3697.00,0.0065
3696.00,0.0066
3695.00,0.0067
3694.00,0.0068
3693.00,0.0070
3692.00,0.0072
3691.00,0.0073
3690.00,0.0075
3689.00,0.0077
3688.00,0.0079
3687.00,0.0081
3686.00,0.0083
3685.00,0.0085
3684.00,0.0086
3683.00,0.0088
3682.00,0.0090
3681.00,0.0092
3680.00,0.0094
3679.00,0.0096
3678.00,0.0098
3677.00,0.0101
3676.00,0.0105
3675.00,0.0108
3674.00,0.0112
3673.00,0.0116
3672.00,0.0120
3671.00,0.0124
3670.00,0.0127
3669.00,0.0129
3668.00,0.0132
3667.00,0.0135
3666.00,0.0138
3665.00,0.0140
3664.00,0.0143
3663.00,0.0146
3662.00,0.0149
3661.00,0.0152
3660.00,0.0155
3659.00,0.0159
3658.00,0.0165
3657.00,0.0171
3656.00,0.0177
3655.00,0.0182
3654.00,0.0187
3653.00,0.0192
3652.00,0.0198
3651.00,0.0205
3650.00,0.0211
3649.00,0.0218
3648.00,0.0224
3647.00,0.0230
3646.00,0.0236
3645.00,0.0241
3644.00,0.0246
3643.00,0.0250
3642.00,0.0255
3641.00,0.0259
3640.00,0.0264
3639.00,0.0269
3638.00,0.0275
3637.00,0.0281
3636.00,0.0287
3635.00,0.0293
3634.00,0.0299
3633.00,0.0305
3632.00,0.0311
3631.00,0.0317
3630.00,0.0325
3629.00,0.0334
3628.00,0.0341
3627.00,0.0349
3626.00,0.0356
3625.00,0.0363
3624.00,0.0369
3623.00,0.0375
3622.00,0.0381
3621.00,0.0387
3620.00,0.0393
3619.00,0.0400
3618.00,0.0408
3617.00,0.0416
3616.00,0.0424
3615.00,0.0431
3614.00,0.0438
3613.00,0.0444
3612.00,0.0451
3611.00,0.0457
3610.00,0.0465
3609.00,0.0472
3608.00,0.0479
3607.00,0.0485
3606.00,0.0491
3605.00,0.0498
3604.00,0.0504
3603.00,0.0511
3602.00,0.0518
3601.00,0.0524
3600.00,0.0531
3599.00,0.0537
3598.00,0.0544
3597.00,0.0551
3596.00,0.0558
3595.00,0.0565
3594.00,0.0572
3593.00,0.0578
3592.00,0.0585
3591.00,0.0592
3590.00,0.0600
3589.00,0.0608
3588.00,0.0615
3587.00,0.0623
3586.00,0.0630
3585.00,0.0637
3584.00,0.0645
3583.00,0.0651
3582.00,0.0657
3581.00,0.0663
3580.00,0.0668
3579.00,0.0675
3578.00,0.0681
3577.00,0.0688
3576.00,0.0695
3575.00,0.0702
3574.00,0.0709
3573.00,0.0716
3572.00,0.0723
3571.00,0.0731
3570.00,0.0738
3569.00,0.0746
3568.00,0.0753
3567.00,0.0760
3566.00,0.0767
3565.00,0.0775
3564.00,0.0783
3563.00,0.0790
3562.00,0.0796
3561.00,0.0802
3560.00,0.0808
3559.00,0.0814
3558.00,0.0821
3557.00,0.0828
3556.00,0.0835
3555.00,0.0842
3554.00,0.0850
3553.00,0.0857
3552.00,0.0864
3551.00,0.0871
3550.00,0.0878
3549.00,0.0886
3548.00,0.0893
3547.00,0.0900
3546.00,0.0907
3545.00,0.0914
3544.00,0.0920
3543.00,0.0927
3542.00,0.0934
3541.00,0.0940
3540.00,0.0947
3539.00,0.0953
3538.00,0.0959
3537.00,0.0966
3536.00,0.0972
3535.00,0.0978
3534.00,0.0985
3533.00,0.0992
3532.00,0.0998
3531.00,0.1005
3530.00,0.1012
3529.00,0.1018
3528.00,0.1025
3527.00,0.1032
3526.00,0.1039
3525.00,0.1046
3524.00,0.1053
3523.00,0.1059
3522.00,0.1064
3521.00,0.1070
3520.00,0.1076
3519.00,0.1082
3518.00,0.1089
3517.00,0.1095
3516.00,0.1102
3515.00,0.1108
3514.00,0.1115
3513.00,0.1122
3512.00,0.1128
3511.00,0.1134
3510.00,0.1140
3509.00,0.1146
3508.00,0.1152
3507.00,0.1159
3506.00,0.1167
3505.00,0.1174
3504.00,0.1181
3503.00,0.1187
3502.00,0.1193
3501.00,0.1199
3500.00,0.1205
3499.00,0.1212
3498.00,0.1218
3497.00,0.1224
3496.00,0.1231
3495.00,0.1237
3494.00,0.1243
3493.00,0.1250
3492.00,0.1256
3491.00,0.1263
3490.00,0.1269
3489.00,0.1276
3488.00,0.1282
3487.00,0.1288
3486.00,0.1295
3485.00,0.1301
3484.00,0.1307
3483.00,0.1313
3482.00,0.1319
3481.00,0.1325
3480.00,0.1331
3479.00,0.1337
3478.00,0.1344
3477.00,0.1350
3476.00,0.1356
3475.00,0.1362
3474.00,0.1368
3473.00,0.1374
3472.00,0.1381
3471.00,0.1388
3470.00,0.1395
3469.00,0.1401
3468.00,0.1407
3467.00,0.1413
3466.00,0.1419
3465.00,0.1425
3464.00,0.1431
3463.00,0.1437
3462.00,0.1443
3461.00,0.1448
3460.00,0.1454
3459.00,0.1460
3458.00,0.1466
3457.00,0.1472
3456.00,0.1478
3455.00,0.1483
3454.00,0.1489
3453.00,0.1494
3452.00,0.1500
3451.00,0.1506
3450.00,0.1512
3449.00,0.1519
3448.00,0.1524
3447.00,0.1530
3446.00,0.1536
3445.00,0.1542
3444.00,0.1547
3443.00,0.1553
3442.00,0.1559
3441.00,0.1565
3440.00,0.1571
3439.00,0.1577
3438.00,0.1584
3437.00,0.1590
3436.00,0.1595
3435.00,0.1600
3434.00,0.1605
3433.00,0.1610
3432.00,0.1616
3431.00,0.1621
3430.00,0.1627
3429.00,0.1632
3428.00,0.1637
3427.00,0.1642
3426.00,0.1647
3425.00,0.1652
3424.00,0.1657
3423.00,0.1662
3422.00,0.1667
3421.00,0.1671
3420.00,0.1676
3419.00,0.1681
3418.00,0.1687
3417.00,0.1692
3416.00,0.1697
3415.00,0.1702
3414.00,0.1707
3413.00,0.1712
3412.00,0.1717
3411.00,0.1722
3410.00,0.1726
3409.00,0.1730
3408.00,0.1734
3407.00,0.1738
3406.00,0.1743
3405.00,0.1747
3404.00,0.1752
3403.00,0.1757
3402.00,0.1762
3401.00,0.1766
3400.00,0.1769
3399.00,0.1772
3398.00,0.1775
3397.00,0.1778
3396.00,0.1782
3395.00,0.1785
3394.00,0.1788
3393.00,0.1791
3392.00,0.1794
3391.00,0.1796
3390.00,0.1798
3389.00,0.1800
3388.00,0.1802
3387.00,0.1805
3386.00,0.1807
3385.00,0.1810
3384.00,0.1811
3383.00,0.1813
3382.00,0.1815
3381.00,0.1817
3380.00,0.1819
3379.00,0.1821
3378.00,0.1823
3377.00,0.1824
3376.00,0.1825
3375.00,0.1826
3374.00,0.1828
3373.00,0.1829
3372.00,0.1831
3371.00,0.1834
3370.00,0.1835
3369.00,0.1836
3368.00,0.1837
3367.00,0.1837
3366.00,0.1837
3365.00,0.1838
3364.00,0.1838
3363.00,0.1839
3362.00,0.1840
3361.00,0.1841
3360.00,0.1841
3359.00,0.1841
3358.00,0.1841
3357.00,0.1841
3356.00,0.1841
3355.00,0.1841
3354.00,0.1842
3353.00,0.1843
3352.00,0.1843
3351.00,0.1844
3350.00,0.1843
3349.00,0.1842
3348.00,0.1841
3347.00,0.1840
3346.00,0.1840
3345.00,0.1840
3344.00,0.1840
3343.00,0.1840
3342.00,0.1840
3341.00,0.1840
3340.00,0.1839
3339.00,0.1839
3338.00,0.1838
3337.00,0.1837
3336.00,0.1836
3335.00,0.1835
3334.00,0.1834
3333.00,0.1834
3332.00,0.1834
3331.00,0.1834
3330.00,0.1833
3329.00,0.1833
3328.00,0.1833
3327.00,0.1832
3326.00,0.1831
3325.00,0.1830
3324.00,0.1829
3323.00,0.1829
3322.00,0.1828
3321.00,0.1828
3320.00,0.1827
3319.00,0.1826
3318.00,0.1824
3317.00,0.1823
3316.00,0.1822
3315.00,0.1821
3314.00,0.1820
3313.00,0.1819
3312.00,0.1819
3311.00,0.1818
3310.00,0.1818
3309.00,0.1817
3308.00,0.1816
3307.00,0.1815
3306.00,0.1814
3305.00,0.1813
3304.00,0.1812
3303.00,0.1811
3302.00,0.1809
3301.00,0.1807
3300.00,0.1805
3299.00,0.1803
3298.00,0.1801
3297.00,0.1799
3296.00,0.1797
3295.00,0.1796
3294.00,0.1794
3293.00,0.1793
3292.00,0.1790
3291.00,0.1788
3290.00,0.1786
3289.00,0.1783
3288.00,0.1781
3287.00,0.1779
3286.00,0.1777
3285.00,0.1774
3284.00,0.1772
3283.00,0.1769
3282.00,0.1766
3281.00,0.1763
3280.00,0.1761
3279.00,0.1759
3278.00,0.1756
3277.00,0.1754
3276.00,0.1751
3275.00,0.1747
3274.00,0.1744
3273.00,0.1741
3272.00,0.1738
3271.00,0.1735
3270.00,0.1731
3269.00,0.1728
3268.00,0.1724
3267.00,0.1720
3266.00,0.1716
3265.00,0.1712
3264.00,0.1708
3263.00,0.1704
3262.00,0.1700
3261.00,0.1697
3260.00,0.1693
3259.00,0.1689
3258.00,0.1685
3257.00,0.1680
3256.00,0.1676
3255.00,0.1671
3254.00,0.1666
3253.00,0.1662
3252.00,0.1657
3251.00,0.1653
3250.00,0.1649
3249.00,0.1644
3248.00,0.1640
3247.00,0.1636
3246.00,0.1632
3245.00,0.1627
3244.00,0.1622
3243.00,0.1617
3242.00,0.1612
3241.00,0.1608
3240.00,0.1603
3239.00,0.1598
3238.00,0.1593
3237.00,0.1589
3236.00,0.1584
3235.00,0.1580
3234.00,0.1575
3233.00,0.1570
3232.00,0.1564
3231.00,0.1558
3230.00,0.1553
3229.00,0.1548
3228.00,0.1543
3227.00,0.1538
3226.00,0.1532
3225.00,0.1526
3224.00,0.1521
3223.00,0.1515
3222.00,0.1510
3221.00,0.1505
3220.00,0.1499
3219.00,0.1494
3218.00,0.1488
3217.00,0.1482
3216.00,0.1477
3215.00,0.1471
3214.00,0.1465
3213.00,0.1459
3212.00,0.1453
3211.00,0.1448
3210.00,0.1442
3209.00,0.1436
3208.00,0.1429
3207.00,0.1423
3206.00,0.1417
3205.00,0.1411
3204.00,0.1405
3203.00,0.1399
3202.00,0.1393
3201.00,0.1386
3200.00,0.1379
3199.00,0.1373
3198.00,0.1366
3197.00,0.1360
3196.00,0.1354
3195.00,0.1347
3194.00,0.1341
3193.00,0.1334
3192.00,0.1327
3191.00,0.1321
3190.00,0.1314
3189.00,0.1307
3188.00,0.1300
3187.00,0.1294
3186.00,0.1287
3185.00,0.1280
3184.00,0.1273
3183.00,0.1267
3182.00,0.1260
3181.00,0.1253
3180.00,0.1246
3179.00,0.1240
3178.00,0.1233
3177.00,0.1226
3176.00,0.1219
3175.00,0.1211
3174.00,0.1204
3173.00,0.1197
3172.00,0.1190
3171.00,0.1183
3170.00,0.1176
3169.00,0.1169
3168.00,0.1162
3167.00,0.1154
3166.00,0.1147
3165.00,0.1140
3164.00,0.1133
3163.00,0.1126
3162.00,0.1120
3161.00,0.1113
3160.00,0.1106
3159.00,0.1100
3158.00,0.1093
3157.00,0.1086
3156.00,0.1079
3155.00,0.1072
3154.00,0.1065
3153.00,0.1058
3152.00,0.1052
3151.00,0.1045
3150.00,0.1038
3149.00,0.1031
3148.00,0.1024
3147.00,0.1017
3146.00,0.1011
3145.00,0.1005
3144.00,0.0999
3143.00,0.0992
3142.00,0.0986
3141.00,0.0979
3140.00,0.0973
3139.00,0.0967
3138.00,0.0961
3137.00,0.0955
3136.00,0.0948
3135.00,0.0942
3134.00,0.0936
3133.00,0.0930
3132.00,0.0924
3131.00,0.0918
3130.00,0.0912
3129.00,0.0907
3128.00,0.0902
3127.00,0.0896
3126.00,0.0891
3125.00,0.0885
3124.00,0.0880
3123.00,0.0874
3122.00,0.0869
3121.00,0.0863
3120.00,0.0858
3119.00,0.0853
3118.00,0.0848
3117.00,0.0842
3116.00,0.0837
3115.00,0.0832
3114.00,0.0827
3113.00,0.0823
3112.00,0.0818
3111.00,0.0814
3110.00,0.0809
3109.00,0.0804
3108.00,0.0799
3107.00,0.0795
3106.00,0.0790
3105.00,0.0786
3104.00,0.0782
3103.00,0.0778
3102.00,0.0773
3101.00,0.0769
3100.00,0.0764
3099.00,0.0760
3098.00,0.0757
3097.00,0.0753
3096.00,0.0749
3095.00,0.0745
3094.00,0.0741
3093.00,0.0737
3092.00,0.0733
3091.00,0.0729
3090.00,0.0725
3089.00,0.0721
3088.00,0.0717
3087.00,0.0714
3086.00,0.0710
3085.00,0.0706
3084.00,0.0702
3083.00,0.0698
3082.00,0.0695
3081.00,0.0692
3080.00,0.0688
3079.00,0.0685
3078.00,0.0682
3077.00,0.0679
3076.00,0.0675
3075.00,0.0672
3074.00,0.0668
3073.00,0.0664
3072.00,0.0660
3071.00,0.0656
3070.00,0.0653
3069.00,0.0649
3068.00,0.0646
3067.00,0.0643
3066.00,0.0639
3065.00,0.0635
3064.00,0.0632
3063.00,0.0628
3062.00,0.0625
3061.00,0.0621
3060.00,0.0617
3059.00,0.0613
3058.00,0.0609
3057.00,0.0605
3056.00,0.0602
3055.00,0.0598
3054.00,0.0594
3053.00,0.0590
3052.00,0.0586
3051.00,0.0582
3050.00,0.0579
3049.00,0.0575
3048.00,0.0571
3047.00,0.0568
3046.00,0.0564
3045.00,0.0560
3044.00,0.0556
3043.00,0.0552
3042.00,0.0549
3041.00,0.0546
3040.00,0.0542
3039.00,0.0539
3038.00,0.0536
3037.00,0.0532
3036.00,0.0528
3035.00,0.0525
3034.00,0.0522
3033.00,0.0519
3032.00,0.0516
3031.00,0.0513
3030.00,0.0510
3029.00,0.0507
3028.00,0.0503
3027.00,0.0500
3026.00,0.0497
3025.00,0.0494
3024.00,0.0491
3023.00,0.0488
3022.00,0.0485
3021.00,0.0482
3020.00,0.0480
3019.00,0.0477
3018.00,0.0475
3017.00,0.0473
3016.00,0.0470
3015.00,0.0468
3014.00,0.0466
3013.00,0.0464
3012.00,0.0462
3011.00,0.0460
3010.00,0.0457
3009.00,0.0455
3008.00,0.0452
3007.00,0.0450
3006.00,0.0448
3005.00,0.0446
3004.00,0.0444
3003.00,0.0443
3002.00,0.0441
3001.00,0.0439
3000.00,0.0437
2999.00,0.0435
2998.00,0.0434
2997.00,0.0433
2996.00,0.0432
2995.00,0.0431
2994.00,0.0430
2993.00,0.0430
2992.00,0.0430
2991.00,0.0430
2990.00,0.0430
2989.00,0.0430
2988.00,0.0431
2987.00,0.0431
2986.00,0.0432
2985.00,0.0432
2984.00,0.0433
2983.00,0.0434
2982.00,0.0434
2981.00,0.0435
2980.00,0.0436
2979.00,0.0437
2978.00,0.0438
2977.00,0.0440
2976.00,0.0441
2975.00,0.0443
2974.00,0.0444
2973.00,0.0446
2972.00,0.0448
2971.00,0.0449
2970.00,0.0450
2969.00,0.0451
2968.00,0.0452
2967.00,0.0453
2966.00,0.0455
2965.00,0.0456
2964.00,0.0456
2963.00,0.0456
2962.00,0.0456
2961.00,0.0455
2960.00,0.0455
2959.00,0.0454
2958.00,0.0453
2957.00,0.0452
2956.00,0.0451
2955.00,0.0449
2954.00,0.0447
2953.00,0.0445
2952.00,0.0443
2951.00,0.0441
2950.00,0.0440
2949.00,0.0438
2948.00,0.0437
2947.00,0.0436
2946.00,0.0435
2945.00,0.0435
2944.00,0.0435
2943.00,0.0435
2942.00,0.0436
2941.00,0.0437
2940.00,0.0438
2939.00,0.0439
2938.00,0.0440
2937.00,0.0441
2936.00,0.0442
2935.00,0.0442
2934.00,0.0443
2933.00,0.0443
2932.00,0.0443
2931.00,0.0443
2930.00,0.0443
2929.00,0.0444
2928.00,0.0444
2927.00,0.0445
2926.00,0.0445
2925.00,0.0444
2924.00,0.0443
2923.00,0.0442
2922.00,0.0441
2921.00,0.0439
2920.00,0.0437
2919.00,0.0434
2918.00,0.0430
2917.00,0.0426
2916.00,0.0422
2915.00,0.0418
2914.00,0.0414
2913.00,0.0410
2912.00,0.0406
2911.00,0.0402
2910.00,0.0399
2909.00,0.0395
2908.00,0.0392
2907.00,0.0389
2906.00,0.0386
2905.00,0.0383
2904.00,0.0380
2903.00,0.0377
2902.00,0.0374
2901.00,0.0372
2900.00,0.0369
2899.00,0.0366
2898.00,0.0364
2897.00,0.0361
2896.00,0.0358
2895.00,0.0356
2894.00,0.0353
2893.00,0.0351
2892.00,0.0349
2891.00,0.0346
2890.00,0.0343
2889.00,0.0341
2888.00,0.0338
2887.00,0.0336
2886.00,0.0334
2885.00,0.0333
2884.00,0.0331
2883.00,0.0329
2882.00,0.0328
2881.00,0.0327
2880.00,0.0325
2879.00,0.0324
2878.00,0.0323
2877.00,0.0322
2876.00,0.0320
2875.00,0.0319
2874.00,0.0317
2873.00,0.0316
2872.00,0.0314
2871.00,0.0312
2870.00,0.0309
2869.00,0.0307
2868.00,0.0304
2867.00,0.0300
2866.00,0.0298
2865.00,0.0295
2864.00,0.0293
2863.00,0.0292
2862.00,0.0290
2861.00,0.0289
2860.00,0.0289
2859.00,0.0288
2858.00,0.0288
2857.00,0.0288
2856.00,0.0288
2855.00,0.0288
2854.00,0.0288
2853.00,0.0287
2852.00,0.0285
2851.00,0.0283
2850.00,0.0280
2849.00,0.0276
2848.00,0.0272
2847.00,0.0267
2846.00,0.0263
2845.00,0.0258
2844.00,0.0254
2843.00,0.0250
2842.00,0.0246
2841.00,0.0242
2840.00,0.0240
2839.00,0.0237
2838.00,0.0235
2837.00,0.0232
2836.00,0.0230
2835.00,0.0228
2834.00,0.0227
2833.00,0.0225
2832.00,0.0223
2831.00,0.0222
2830.00,0.0221
2829.00,0.0219
2828.00,0.0218
2827.00,0.0216
2826.00,0.0215
2825.00,0.0214
2824.00,0.0212
2823.00,0.0211
2822.00,0.0210
2821.00,0.0209
2820.00,0.0207
2819.00,0.0206
2818.00,0.0205
2817.00,0.0204
2816.00,0.0203
2815.00,0.0202
2814.00,0.0201
2813.00,0.0199
2812.00,0.0198
2811.00,0.0197
2810.00,0.0196
2809.00,0.0195
2808.00,0.0194
2807.00,0.0193
2806.00,0.0192
2805.00,0.0191
2804.00,0.0190
2803.00,0.0189
2802.00,0.0188
2801.00,0.0187
2800.00,0.0186
2799.00,0.0185
2798.00,0.0184
2797.00,0.0183
2796.00,0.0182
2795.00,0.0182
2794.00,0.0181
2793.00,0.0180
2792.00,0.0179
2791.00,0.0178
2790.00,0.0177
2789.00,0.0176
2788.00,0.0175
2787.00,0.0175
2786.00,0.0174
2785.00,0.0173
2784.00,0.0173
2783.00,0.0172
2782.00,0.0171
2781.00,0.0170
2780.00,0.0169
2779.00,0.0169
2778.00,0.0168
2777.00,0.0167
2776.00,0.0166
2775.00,0.0165
2774.00,0.0164
2773.00,0.0163
2772.00,0.0163
2771.00,0.0162
2770.00,0.0162
2769.00,0.0161
2768.00,0.0160
2767.00,0.0160
2766.00,0.0159
2765.00,0.0158
2764.00,0.0158
2763.00,0.0157
2762.00,0.0156
2761.00,0.0156
2760.00,0.0155
2759.00,0.0155
2758.00,0.0154
2757.00,0.0153
2756.00,0.0153
2755.00,0.0152
2754.00,0.0151
2753.00,0.0151
2752.00,0.0150
2751.00,0.0150
2750.00,0.0150
2749.00,0.0149
2748.00,0.0149
2747.00,0.0148
2746.00,0.0148
2745.00,0.0147
2744.00,0.0146
2743.00,0.0146
2742.00,0.0145
2741.00,0.0145
2740.00,0.0144
2739.00,0.0144
2738.00,0.0143
2737.00,0.0143
2736.00,0.0143
2735.00,0.0142
2734.00,0.0142
2733.00,0.0141
2732.00,0.0141
2731.00,0.0140
2730.00,0.0140
2729.00,0.0139
2728.00,0.0139
2727.00,0.0138
2726.00,0.0137
2725.00,0.0137
2724.00,0.0136
2723.00,0.0136
2722.00,0.0136
2721.00,0.0135
2720.00,0.0135
2719.00,0.0134
2718.00,0.0134
2717.00,0.0133
2716.00,0.0133
2715.00,0.0132
2714.00,0.0132
2713.00,0.0131
2712.00,0.0131
2711.00,0.0130
2710.00,0.0130
2709.00,0.0130
2708.00,0.0130
2707.00,0.0130
2706.00,0.0129
2705.00,0.0129
2704.00,0.0128
2703.00,0.0128
2702.00,0.0127
2701.00,0.0126
2700.00,0.0126
2699.00,0.0126
2698.00,0.0126
2697.00,0.0125
2696.00,0.0125
2695.00,0.0124
2694.00,0.0124
2693.00,0.0124
2692.00,0.0123
2691.00,0.0123
2690.00,0.0122
2689.00,0.0121
2688.00,0.0121
2687.00,0.0121
2686.00,0.0121
2685.00,0.0121
2684.00,0.0121
2683.00,0.0121
2682.00,0.0121
2681.00,0.0121
2680.00,0.0120
2679.00,0.0119
2678.00,0.0119
2677.00,0.0118
2676.00,0.0118
2675.00,0.0118
2674.00,0.0117
2673.00,0.0117
2672.00,0.0117
2671.00,0.0117
2670.00,0.0117
2669.00,0.0117
2668.00,0.0116
2667.00,0.0116
2666.00,0.0116
2665.00,0.0116
2664.00,0.0116
2663.00,0.0116
2662.00,0.0116
2661.00,0.0116
2660.00,0.0116
2659.00,0.0116
2658.00,0.0116
2657.00,0.0116
2656.00,0.0115
2655.00,0.0115
2654.00,0.0115
2653.00,0.0114
2652.00,0.0114
2651.00,0.0114
2650.00,0.0113
2649.00,0.0112
2648.00,0.0112
2647.00,0.0111
2646.00,0.0111
2645.00,0.0111
2644.00,0.0111
2643.00,0.0111
2642.00,0.0110
2641.00,0.0110
2640.00,0.0110
2639.00,0.0109
2638.00,0.0108
2637.00,0.0108
2636.00,0.0107
2635.00,0.0106
2634.00,0.0106
2633.00,0.0105
2632.00,0.0105
2631.00,0.0104
2630.00,0.0104
2629.00,0.0104
2628.00,0.0103
2627.00,0.0103
2626.00,0.0103
2625.00,0.0102
2624.00,0.0102
2623.00,0.0102
2622.00,0.0101
2621.00,0.0101
2620.00,0.0101
2619.00,0.0101
2618.00,0.0100
2617.00,0.0100
2616.00,0.0099
2615.00,0.0098
2614.00,0.0098
2613.00,0.0097
2612.00,0.0097
2611.00,0.0097
2610.00,0.0097
2609.00,0.0096
2608.00,0.0096
2607.00,0.0096
2606.00,0.0096
2605.00,0.0096
2604.00,0.0095
2603.00,0.0094
2602.00,0.0094
2601.00,0.0093
2600.00,0.0093
2599.00,0.0093
2598.00,0.0093
2597.00,0.0092
2596.00,0.0092
2595.00,0.0092
2594.00,0.0092
2593.00,0.0091
2592.00,0.0091
2591.00,0.0090
2590.00,0.0089
2589.00,0.0089
2588.00,0.0089
2587.00,0.0088
2586.00,0.0088
2585.00,0.0088
2584.00,0.0088
2583.00,0.0088
2582.00,0.0088
2581.00,0.0088
2580.00,0.0088
2579.00,0.0088
2578.00,0.0088
2577.00,0.0088
2576.00,0.0088
2575.00,0.0088
2574.00,0.0087
2573.00,0.0086
2572.00,0.0085
2571.00,0.0085
2570.00,0.0085
2569.00,0.0085
2568.00,0.0085
2567.00,0.0084
2566.00,0.0084
2565.00,0.0083
2564.00,0.0083
2563.00,0.0083
2562.00,0.0083
2561.00,0.0083
2560.00,0.0084
2559.00,0.0084
2558.00,0.0083
2557.00,0.0083
2556.00,0.0082
2555.00,0.0082
2554.00,0.0081
2553.00,0.0082
2552.00,0.0082
2551.00,0.0083
2550.00,0.0083
2549.00,0.0082
2548.00,0.0082
2547.00,0.0081
2546.00,0.0081
2545.00,0.0081
2544.00,0.0081
2543.00,0.0081
2542.00,0.0081
2541.00,0.0081
2540.00,0.0081
2539.00,0.0081
2538.00,0.0080
2537.00,0.0080
2536.00,0.0079
2535.00,0.0080
2534.00,0.0080
2533.00,0.0081
2532.00,0.0081
2531.00,0.0080
2530.00,0.0079
2529.00,0.0079
2528.00,0.0078
2527.00,0.0079
2526.00,0.0079
2525.00,0.0079
2524.00,0.0080
2523.00,0.0080
2522.00,0.0079
2521.00,0.0079
2520.00,0.0079
2519.00,0.0079
2518.00,0.0079
2517.00,0.0079
2516.00,0.0079
2515.00,0.0079
2514.00,0.0078
2513.00,0.0078
2512.00,0.0078
2511.00,0.0079
2510.00,0.0079
2509.00,0.0079
2508.00,0.0079
2507.00,0.0079
2506.00,0.0079
2505.00,0.0079
2504.00,0.0079
2503.00,0.0079
2502.00,0.0078
2501.00,0.0078
2500.00,0.0078
2499.00,0.0077
2498.00,0.0077
2497.00,0.0078
2496.00,0.0078
2495.00,0.0078
2494.00,0.0078
2493.00,0.0077
2492.00,0.0077
2491.00,0.0077
2490.00,0.0077
2489.00,0.0078
2488.00,0.0078
2487.00,0.0078
2486.00,0.0078
2485.00,0.0078
2484.00,0.0077
2483.00,0.0077
2482.00,0.0076
2481.00,0.0076
2480.00,0.0076
2479.00,0.0076
2478.00,0.0076
2477.00,0.0076
2476.00,0.0076
2475.00,0.0076
2474.00,0.0076
2473.00,0.0076
2472.00,0.0076
2471.00,0.0075
2470.00,0.0075
2469.00,0.0075
2468.00,0.0075
2467.00,0.0075
2466.00,0.0075
2465.00,0.0074
2464.00,0.0074
2463.00,0.0074
2462.00,0.0075
2461.00,0.0076
2460.00,0.0076
2459.00,0.0076
2458.00,0.0076
2457.00,0.0077
2456.00,0.0077
2455.00,0.0078
2454.00,0.0078
2453.00,0.0078
2452.00,0.0078
2451.00,0.0077
2450.00,0.0077
2449.00,0.0077
2448.00,0.0077
2447.00,0.0076
2446.00,0.0076
2445.00,0.0076
2444.00,0.0076
2443.00,0.0076
2442.00,0.0076
2441.00,0.0076
2440.00,0.0076
2439.00,0.0076
2438.00,0.0076
2437.00,0.0075
2436.00,0.0075
2435.00,0.0074
2434.00,0.0074
2433.00,0.0074
2432.00,0.0074
2431.00,0.0075
2430.00,0.0075
2429.00,0.0075
2428.00,0.0076
2427.00,0.0076
2426.00,0.0076
2425.00,0.0076
2424.00,0.0075
2423.00,0.0075
2422.00,0.0074
2421.00,0.0074
2420.00,0.0074
2419.00,0.0074
2418.00,0.0074
2417.00,0.0075
2416.00,0.0074
2415.00,0.0074
2414.00,0.0074
2413.00,0.0074
2412.00,0.0074
2411.00,0.0075
2410.00,0.0074
2409.00,0.0074
2408.00,0.0074
2407.00,0.0073
2406.00,0.0073
2405.00,0.0074
2404.00,0.0075
2403.00,0.0076
2402.00,0.0076
2401.00,0.0075
2400.00,0.0075
2399.00,0.0075
2398.00,0.0075
2397.00,0.0075
2396.00,0.0075
2395.00,0.0075
2394.00,0.0076
2393.00,0.0076
2392.00,0.0077
2391.00,0.0076
2390.00,0.0076
2389.00,0.0076
2388.00,0.0076
2387.00,0.0076
2386.00,0.0076
2385.00,0.0076
2384.00,0.0076
2383.00,0.0075
2382.00,0.0075
2381.00,0.0075
2380.00,0.0075
2379.00,0.0075
2378.00,0.0074
2377.00,0.0074
2376.00,0.0074
2375.00,0.0075
2374.00,0.0076
2373.00,0.0076
2372.00,0.0077
2371.00,0.0076
2370.00,0.0076
2369.00,0.0075
2368.00,0.0075
2367.00,0.0076
2366.00,0.0076
2365.00,0.0076
2364.00,0.0077
2363.00,0.0079
2362.00,0.0080
2361.00,0.0080
2360.00,0.0080
2359.00,0.0079
2358.00,0.0079
2357.00,0.0079
2356.00,0.0079
2355.00,0.0080
2354.00,0.0081
2353.00,0.0081
2352.00,0.0081
2351.00,0.0081
2350.00,0.0081
2349.00,0.0081
2348.00,0.0083
2347.00,0.0085
2346.00,0.0087
2345.00,0.0087
2344.00,0.0086
2343.00,0.0085
2342.00,0.0085
2341.00,0.0085
2340.00,0.0086
2339.00,0.0086
2338.00,0.0087
2337.00,0.0088
2336.00,0.0088
2335.00,0.0088
2334.00,0.0088
2333.00,0.0087
2332.00,0.0087
2331.00,0.0087
2330.00,0.0087
2329.00,0.0087
2328.00,0.0089
2327.00,0.0092
2326.00,0.0096
2325.00,0.0099
2324.00,0.0102
2323.00,0.0101
2322.00,0.0100
2321.00,0.0098
2320.00,0.0097
2319.00,0.0096
2318.00,0.0095
2317.00,0.0095
2316.00,0.0095
2315.00,0.0095
2314.00,0.0095
2313.00,0.0095
2312.00,0.0095
2311.00,0.0095
2310.00,0.0095
2309.00,0.0095
2308.00,0.0094
2307.00,0.0093
2306.00,0.0093
2305.00,0.0093
2304.00,0.0093
2303.00,0.0094
2302.00,0.0094
2301.00,0.0094
2300.00,0.0095
2299.00,0.0096
2298.00,0.0097
2297.00,0.0099
2296.00,0.0100
2295.00,0.0100
2294.00,0.0100
2293.00,0.0100
2292.00,0.0101
2291.00,0.0102
2290.00,0.0102
2289.00,0.0103
2288.00,0.0103
2287.00,0.0103
2286.00,0.0103
2285.00,0.0103
2284.00,0.0103
2283.00,0.0104
2282.00,0.0104
2281.00,0.0104
2280.00,0.0103
2279.00,0.0103
2278.00,0.0102
2277.00,0.0100
2276.00,0.0100
2275.00,0.0099
2274.00,0.0099
2273.00,0.0100
2272.00,0.0101
2271.00,0.0101
2270.00,0.0102
2269.00,0.0101
2268.00,0.0101
2267.00,0.0100
2266.00,0.0100
2265.00,0.0099
2264.00,0.0098
2263.00,0.0097
2262.00,0.0096
2261.00,0.0095
2260.00,0.0095
2259.00,0.0095
2258.00,0.0095
2257.00,0.0096
2256.00,0.0096
2255.00,0.0095
2254.00,0.0095
2253.00,0.0094
2252.00,0.0093
2251.00,0.0093
2250.00,0.0093
2249.00,0.0094
2248.00,0.0094
2247.00,0.0094
2246.00,0.0093
2245.00,0.0092
2244.00,0.0092
2243.00,0.0092
2242.00,0.0093
2241.00,0.0094
2240.00,0.0094
2239.00,0.0094
2238.00,0.0094
2237.00,0.0094
2236.00,0.0094
2235.00,0.0093
2234.00,0.0092
2233.00,0.0092
2232.00,0.0092
2231.00,0.0093
2230.00,0.0094
2229.00,0.0094
2228.00,0.0093
2227.00,0.0093
2226.00,0.0094
2225.00,0.0094
2224.00,0.0094
2223.00,0.0094
2222.00,0.0093
2221.00,0.0094
2220.00,0.0095
2219.00,0.0095
2218.00,0.0094
2217.00,0.0094
2216.00,0.0095
2215.00,0.0095
2214.00,0.0094
2213.00,0.0094
2212.00,0.0093
2211.00,0.0094
2210.00,0.0095
2209.00,0.0097
2208.00,0.0099
2207.00,0.0100
2206.00,0.0098
2205.00,0.0095
2204.00,0.0093
2203.00,0.0092
2202.00,0.0092
2201.00,0.0091
2200.00,0.0091
2199.00,0.0090
2198.00,0.0090
2197.00,0.0090
2196.00,0.0091
2195.00,0.0092
2194.00,0.0092
2193.00,0.0091
2192.00,0.0091
2191.00,0.0091
2190.00,0.0092
2189.00,0.0093
2188.00,0.0095
2187.00,0.0097
2186.00,0.0099
2185.00,0.0099
2184.00,0.0097
2183.00,0.0093
2182.00,0.0089
2181.00,0.0087
2180.00,0.0086
2179.00,0.0085
2178.00,0.0085
2177.00,0.0086
2176.00,0.0088
2175.00,0.0090
2174.00,0.0091
2173.00,0.0091
2172.00,0.0092
2171.00,0.0092
2170.00,0.0093
2169.00,0.0094
2168.00,0.0095
2167.00,0.0095
2166.00,0.0094
2165.00,0.0092
2164.00,0.0091
2163.00,0.0091
2162.00,0.0092
2161.00,0.0090
2160.00,0.0083
2159.00,0.0070
2158.00,0.0058
2157.00,0.0052
2156.00,0.0052
2155.00,0.0054
2154.00,0.0059
2153.00,0.0064
2152.00,0.0068
2151.00,0.0071
2150.00,0.0071
2149.00,0.0071
2148.00,0.0070
2147.00,0.0069
2146.00,0.0070
2145.00,0.0073
2144.00,0.0075
2143.00,0.0077
2142.00,0.0076
2141.00,0.0075
2140.00,0.0074
2139.00,0.0075
2138.00,0.0076
2137.00,0.0078
2136.00,0.0079
2135.00,0.0079
2134.00,0.0078
2133.00,0.0079
2132.00,0.0080
2131.00,0.0083
2130.00,0.0086
2129.00,0.0090
2128.00,0.0093
2127.00,0.0096
2126.00,0.0097
2125.00,0.0099
2124.00,0.0100
2123.00,0.0101
2122.00,0.0102
2121.00,0.0101
2120.00,0.0101
2119.00,0.0100
2118.00,0.0101
2117.00,0.0103
2116.00,0.0106
2115.00,0.0108
2114.00,0.0108
2113.00,0.0108
2112.00,0.0107
2111.00,0.0106
2110.00,0.0107
2109.00,0.0108
2108.00,0.0109
2107.00,0.0110
2106.00,0.0111
2105.00,0.0110
2104.00,0.0110
2103.00,0.0109
2102.00,0.0108
2101.00,0.0109
2100.00,0.0110
2099.00,0.0110
2098.00,0.0110
2097.00,0.0109
2096.00,0.0108
2095.00,0.0106
2094.00,0.0104
2093.00,0.0103
2092.00,0.0103
2091.00,0.0103
2090.00,0.0104
2089.00,0.0105
2088.00,0.0105
2087.00,0.0106
2086.00,0.0106
2085.00,0.0106
2084.00,0.0106
2083.00,0.0106
2082.00,0.0106
2081.00,0.0106
2080.00,0.0106
2079.00,0.0107
2078.00,0.0106
2077.00,0.0105
2076.00,0.0104
2075.00,0.0102
2074.00,0.0101
2073.00,0.0102
2072.00,0.0102
2071.00,0.0102
2070.00,0.0101
2069.00,0.0099
2068.00,0.0097
2067.00,0.0095
2066.00,0.0093
2065.00,0.0092
2064.00,0.0092
2063.00,0.0093
2062.00,0.0093
2061.00,0.0093
2060.00,0.0093
2059.00,0.0093
2058.00,0.0093
2057.00,0.0093
2056.00,0.0092
2055.00,0.0091
2054.00,0.0091
2053.00,0.0092
2052.00,0.0094
2051.00,0.0096
2050.00,0.0096
2049.00,0.0093
2048.00,0.0090
2047.00,0.0087
2046.00,0.0085
2045.00,0.0084
2044.00,0.0084
2043.00,0.0084
2042.00,0.0083
2041.00,0.0083
2040.00,0.0082
2039.00,0.0082
2038.00,0.0082
2037.00,0.0081
2036.00,0.0080
2035.00,0.0077
2034.00,0.0074
2033.00,0.0072
2032.00,0.0072
2031.00,0.0072
2030.00,0.0073
2029.00,0.0073
2028.00,0.0072
2027.00,0.0071
2026.00,0.0070
2025.00,0.0068
2024.00,0.0068
2023.00,0.0069
2022.00,0.0070
2021.00,0.0071
2020.00,0.0072
2019.00,0.0072
2018.00,0.0072
2017.00,0.0072
2016.00,0.0072
2015.00,0.0070
2014.00,0.0068
2013.00,0.0067
2012.00,0.0067
2011.00,0.0067
2010.00,0.0067
2009.00,0.0066
2008.00,0.0065
2007.00,0.0063
2006.00,0.0062
2005.00,0.0062
2004.00,0.0064
2003.00,0.0064
2002.00,0.0065
2001.00,0.0068
2000.00,0.0071
1999.00,0.0074
1998.00,0.0074
1997.00,0.0073
1996.00,0.0073
1995.00,0.0074
1994.00,0.0074
1993.00,0.0074
1992.00,0.0074
1991.00,0.0075
1990.00,0.0076
1989.00,0.0076
1988.00,0.0077
1987.00,0.0076
1986.00,0.0075
1985.00,0.0076
1984.00,0.0078
1983.00,0.0081
1982.00,0.0082
1981.00,0.0083
1980.00,0.0082
1979.00,0.0078
1978.00,0.0072
1977.00,0.0067
1976.00,0.0063
1975.00,0.0062
1974.00,0.0061
1973.00,0.0061
1972.00,0.0061
1971.00,0.0061
1970.00,0.0061
1969.00,0.0061
1968.00,0.0062
1967.00,0.0062
1966.00,0.0062
1965.00,0.0061
1964.00,0.0061
1963.00,0.0060
1962.00,0.0059
1961.00,0.0058
1960.00,0.0057
1959.00,0.0056
1958.00,0.0056
1957.00,0.0057
1956.00,0.0059
1955.00,0.0060
1954.00,0.0059
1953.00,0.0059
1952.00,0.0059
1951.00,0.0060
1950.00,0.0061
1949.00,0.0063
1948.00,0.0065
1947.00,0.0065
1946.00,0.0064
1945.00,0.0062
1944.00,0.0059
1943.00,0.0058
1942.00,0.0057
1941.00,0.0059
1940.00,0.0062
1939.00,0.0063
1938.00,0.0064
1937.00,0.0064
1936.00,0.0065
1935.00,0.0066
1934.00,0.0065
1933.00,0.0064
1932.00,0.0064
1931.00,0.0065
1930.00,0.0065
1929.00,0.0066
1928.00,0.0065
1927.00,0.0064
1926.00,0.0063
1925.00,0.0062
1924.00,0.0063
1923.00,0.0063
1922.00,0.0064
1921.00,0.0064
1920.00,0.0064
1919.00,0.0065
1918.00,0.0065
1917.00,0.0066
1916.00,0.0068
1915.00,0.0068
1914.00,0.0067
1913.00,0.0066
1912.00,0.0065
1911.00,0.0065
1910.00,0.0065
1909.00,0.0065
1908.00,0.0065
1907.00,0.0065
1906.00,0.0065
1905.00,0.0065
1904.00,0.0065
1903.00,0.0065
1902.00,0.0065
1901.00,0.0065
1900.00,0.0065
1899.00,0.0065
1898.00,0.0065
1897.00,0.0065
1896.00,0.0065
1895.00,0.0065
1894.00,0.0064
1893.00,0.0064
1892.00,0.0064
1891.00,0.0063
1890.00,0.0063
1889.00,0.0062
1888.00,0.0062
1887.00,0.0061
1886.00,0.0061
1885.00,0.0060
1884.00,0.0060
1883.00,0.0060
1882.00,0.0060
1881.00,0.0061
1880.00,0.0061
1879.00,0.0062
1878.00,0.0061
1877.00,0.0062
1876.00,0.0062
1875.00,0.0063
1874.00,0.0063
1873.00,0.0063
1872.00,0.0062
1871.00,0.0061
1870.00,0.0060
1869.00,0.0059
1868.00,0.0058
1867.00,0.0058
1866.00,0.0058
1865.00,0.0059
1864.00,0.0060
1863.00,0.0060
1862.00,0.0059
1861.00,0.0059
1860.00,0.0059
1859.00,0.0059
1858.00,0.0059
1857.00,0.0060
1856.00,0.0060
1855.00,0.0061
1854.00,0.0061
1853.00,0.0060
1852.00,0.0060
1851.00,0.0060
1850.00,0.0059
1849.00,0.0059
1848.00,0.0058
1847.00,0.0058
1846.00,0.0059
1845.00,0.0061
1844.00,0.0062
1843.00,0.0061
1842.00,0.0060
1841.00,0.0059
1840.00,0.0059
1839.00,0.0060
1838.00,0.0060
1837.00,0.0059
1836.00,0.0059
1835.00,0.0059
1834.00,0.0059
1833.00,0.0059
1832.00,0.0060
1831.00,0.0061
1830.00,0.0061
1829.00,0.0060
1828.00,0.0060
1827.00,0.0060
1826.00,0.0061
1825.00,0.0061
1824.00,0.0061
1823.00,0.0061
1822.00,0.0062
1821.00,0.0062
1820.00,0.0062
1819.00,0.0061
1818.00,0.0060
1817.00,0.0058
1816.00,0.0058
1815.00,0.0058
1814.00,0.0059
1813.00,0.0060
1812.00,0.0060
1811.00,0.0060
1810.00,0.0060
1809.00,0.0060
1808.00,0.0060
1807.00,0.0060
1806.00,0.0060
1805.00,0.0060
1804.00,0.0060
1803.00,0.0060
1802.00,0.0059
1801.00,0.0060
1800.00,0.0060
1799.00,0.0061
1798.00,0.0061
1797.00,0.0060
1796.00,0.0059
1795.00,0.0058
1794.00,0.0059
1793.00,0.0061
1792.00,0.0061
1791.00,0.0061
1790.00,0.0060
1789.00,0.0060
1788.00,0.0061
1787.00,0.0061
1786.00,0.0061
1785.00,0.0060
1784.00,0.0060
1783.00,0.0060
1782.00,0.0060
1781.00,0.0060
1780.00,0.0060
1779.00,0.0060
1778.00,0.0060
1777.00,0.0060
1776.00,0.0060
1775.00,0.0059
1774.00,0.0059
1773.00,0.0060
1772.00,0.0062
1771.00,0.0062
1770.00,0.0062
1769.00,0.0061
1768.00,0.0061
1767.00,0.0061
1766.00,0.0061
1765.00,0.0061
1764.00,0.0061
1763.00,0.0061
1762.00,0.0061
1761.00,0.0062
1760.00,0.0063
1759.00,0.0065
1758.00,0.0066
1757.00,0.0068
1756.00,0.0070
1755.00,0.0071
1754.00,0.0072
1753.00,0.0074
1752.00,0.0076
1751.00,0.0079
1750.00,0.0081
1749.00,0.0083
1748.00,0.0086
1747.00,0.0089
1746.00,0.0091
1745.00,0.0094
1744.00,0.0096
1743.00,0.0098
1742.00,0.0100
1741.00,0.0103
1740.00,0.0107
1739.00,0.0110
1738.00,0.0110
1737.00,0.0110
1736.00,0.0112
1735.00,0.0115
1734.00,0.0118
1733.00,0.0119
1732.00,0.0121
1731.00,0.0123
1730.00,0.0125
1729.00,0.0127
1728.00,0.0131
1727.00,0.0134
1726.00,0.0137
1725.00,0.0140
1724.00,0.0144
1723.00,0.0147
1722.00,0.0150
1721.00,0.0152
1720.00,0.0155
1719.00,0.0159
1718.00,0.0163
1717.00,0.0167
1716.00,0.0173
1715.00,0.0179
1714.00,0.0184
1713.00,0.0190
1712.00,0.0196
1711.00,0.0201
1710.00,0.0207
1709.00,0.0213
1708.00,0.0220
1707.00,0.0228
1706.00,0.0237
1705.00,0.0245
1704.00,0.0252
1703.00,0.0259
1702.00,0.0268
1701.00,0.0284
1700.00,0.0305
1699.00,0.0320
1698.00,0.0330
1697.00,0.0342
1696.00,0.0361
1695.00,0.0383
1694.00,0.0402
1693.00,0.0418
1692.00,0.0434
1691.00,0.0452
1690.00,0.0470
1689.00,0.0489
1688.00,0.0505
1687.00,0.0520
1686.00,0.0537
1685.00,0.0562
1684.00,0.0592
1683.00,0.0620
1682.00,0.0641
1681.00,0.0659
1680.00,0.0677
1679.00,0.0695
1678.00,0.0713
1677.00,0.0733
1676.00,0.0757
1675.00,0.0783
1674.00,0.0806
1673.00,0.0826
1672.00,0.0844
1671.00,0.0865
1670.00,0.0888
1669.00,0.0914
1668.00,0.0940
1667.00,0.0962
1666.00,0.0982
1665.00,0.1002
1664.00,0.1025
1663.00,0.1052
1662.00,0.1078
1661.00,0.1103
1660.00,0.1127
1659.00,0.1148
1658.00,0.1168
1657.00,0.1184
1656.00,0.1196
1655.00,0.1209
1654.00,0.1228
1653.00,0.1255
1652.00,0.1283
1651.00,0.1302
1650.00,0.1312
1649.00,0.1319
1648.00,0.1326
1647.00,0.1334
1646.00,0.1344
1645.00,0.1354
1644.00,0.1362
1643.00,0.1368
1642.00,0.1371
1641.00,0.1373
1640.00,0.1374
1639.00,0.1375
1638.00,0.1374
1637.00,0.1371
1636.00,0.1369
1635.00,0.1367
1634.00,0.1364
1633.00,0.1358
1632.00,0.1350
1631.00,0.1339
1630.00,0.1326
1629.00,0.1311
1628.00,0.1295
1627.00,0.1279
1626.00,0.1262
1625.00,0.1243
1624.00,0.1222
1623.00,0.1199
1622.00,0.1176
1621.00,0.1155
1620.00,0.1134
1619.00,0.1113
1618.00,0.1088
1617.00,0.1059
1616.00,0.1029
1615.00,0.1003
1614.00,0.0980
1613.00,0.0957
1612.00,0.0932
1611.00,0.0907
1610.00,0.0882
1609.00,0.0857
1608.00,0.0833
1607.00,0.0811
1606.00,0.0789
1605.00,0.0769
1604.00,0.0749
1603.00,0.0730
1602.00,0.0711
1601.00,0.0692
1600.00,0.0674
1599.00,0.0658
1598.00,0.0642
1597.00,0.0626
1596.00,0.0611
1595.00,0.0596
1594.00,0.0582
1593.00,0.0569
1592.00,0.0556
1591.00,0.0544
1590.00,0.0534
1589.00,0.0524
1588.00,0.0514
1587.00,0.0506
1586.00,0.0498
1585.00,0.0491
1584.00,0.0484
1583.00,0.0478
1582.00,0.0473
1581.00,0.0468
1580.00,0.0463
1579.00,0.0458
1578.00,0.0455
1577.00,0.0452
1576.00,0.0451
1575.00,0.0451
1574.00,0.0451
1573.00,0.0451
1572.00,0.0451
1571.00,0.0451
1570.00,0.0453
1569.00,0.0456
1568.00,0.0458
1567.00,0.0461
1566.00,0.0463
1565.00,0.0466
1564.00,0.0468
1563.00,0.0470
1562.00,0.0471
1561.00,0.0474
1560.00,0.0482
1559.00,0.0493
1558.00,0.0504
1557.00,0.0514
1556.00,0.0519
1555.00,0.0523
1554.00,0.0528
1553.00,0.0534
1552.00,0.0538
1551.00,0.0542
1550.00,0.0544
1549.00,0.0547
1548.00,0.0549
1547.00,0.0551
1546.00,0.0550
1545.00,0.0547
1544.00,0.0542
1543.00,0.0538
1542.00,0.0534
1541.00,0.0530
1540.00,0.0523
1539.00,0.0517
1538.00,0.0513
1537.00,0.0508
1536.00,0.0502
1535.00,0.0495
1534.00,0.0486
1533.00,0.0475
1532.00,0.0465
1531.00,0.0457
1530.00,0.0450
1529.00,0.0441
1528.00,0.0432
1527.00,0.0421
1526.00,0.0412
1525.00,0.0403
1524.00,0.0395
1523.00,0.0387
1522.00,0.0378
1521.00,0.0369
1520.00,0.0362
1519.00,0.0357
1518.00,0.0351
1517.00,0.0342
1516.00,0.0331
1515.00,0.0321
1514.00,0.0312
1513.00,0.0302
1512.00,0.0290
1511.00,0.0278
1510.00,0.0265
1509.00,0.0252
1508.00,0.0239
1507.00,0.0226
1506.00,0.0218
1505.00,0.0214
1504.00,0.0209
1503.00,0.0201
1502.00,0.0194
1501.00,0.0186
1500.00,0.0179
1499.00,0.0172
1498.00,0.0165
1497.00,0.0158
1496.00,0.0152
1495.00,0.0148
1494.00,0.0144
1493.00,0.0140
1492.00,0.0137
1491.00,0.0133
1490.00,0.0128
1489.00,0.0124
1488.00,0.0122
1487.00,0.0122
1486.00,0.0123
1485.00,0.0123
1484.00,0.0124
1483.00,0.0125
1482.00,0.0126
1481.00,0.0128
1480.00,0.0131
1479.00,0.0135
1478.00,0.0138
1477.00,0.0142
1476.00,0.0146
1475.00,0.0150
1474.00,0.0156
1473.00,0.0164
1472.00,0.0172
1471.00,0.0180
1470.00,0.0186
1469.00,0.0190
1468.00,0.0192
1467.00,0.0194
1466.00,0.0196
1465.00,0.0200
1464.00,0.0204
1463.00,0.0208
1462.00,0.0211
1461.00,0.0213
1460.00,0.0215
1459.00,0.0216
1458.00,0.0218
1457.00,0.0223
1456.00,0.0230
1455.00,0.0236
1454.00,0.0239
1453.00,0.0240
1452.00,0.0240
1451.00,0.0240
1450.00,0.0240
1449.00,0.0241
1448.00,0.0241
1447.00,0.0242
1446.00,0.0242
1445.00,0.0243
1444.00,0.0243
1443.00,0.0244
1442.00,0.0244
1441.00,0.0245
1440.00,0.0245
1439.00,0.0244
1438.00,0.0244
1437.00,0.0245
1436.00,0.0246
1435.00,0.0248
1434.00,0.0249
1433.00,0.0250
1432.00,0.0251
1431.00,0.0252
1430.00,0.0254
1429.00,0.0256
1428.00,0.0258
1427.00,0.0260
1426.00,0.0262
1425.00,0.0263
1424.00,0.0265
1423.00,0.0266
1422.00,0.0266
1421.00,0.0267
1420.00,0.0269
1419.00,0.0269
1418.00,0.0269
1417.00,0.0270
1416.00,0.0271
1415.00,0.0271
1414.00,0.0270
1413.00,0.0269
1412.00,0.0267
1411.00,0.0265
1410.00,0.0263
1409.00,0.0262
1408.00,0.0259
1407.00,0.0256
1406.00,0.0252
1405.00,0.0248
1404.00,0.0245
1403.00,0.0242
1402.00,0.0238
1401.00,0.0234
1400.00,0.0228
1399.00,0.0222
1398.00,0.0215
1397.00,0.0210
1396.00,0.0205
1395.00,0.0201
1394.00,0.0198
1393.00,0.0196
1392.00,0.0195
1391.00,0.0194
1390.00,0.0193
1389.00,0.0193
1388.00,0.0193
1387.00,0.0195
1386.00,0.0198
1385.00,0.0203
1384.00,0.0207
1383.00,0.0211
1382.00,0.0215
1381.00,0.0218
1380.00,0.0220
1379.00,0.0221
1378.00,0.0221
1377.00,0.0220
1376.00,0.0218
1375.00,0.0215
1374.00,0.0210
1373.00,0.0207
1372.00,0.0203
1371.00,0.0200
1370.00,0.0196
1369.00,0.0191
1368.00,0.0186
1367.00,0.0180
1366.00,0.0175
1365.00,0.0169
1364.00,0.0163
1363.00,0.0157
1362.00,0.0153
1361.00,0.0151
1360.00,0.0151
1359.00,0.0150
1358.00,0.0149
1357.00,0.0147
1356.00,0.0145
1355.00,0.0144
1354.00,0.0142
1353.00,0.0140
1352.00,0.0137
1351.00,0.0134
1350.00,0.0130
1349.00,0.0126
1348.00,0.0121
1347.00,0.0116
1346.00,0.0112
1345.00,0.0108
1344.00,0.0104
1343.00,0.0099
1342.00,0.0095
1341.00,0.0090
1340.00,0.0086
1339.00,0.0082
1338.00,0.0080
1337.00,0.0079
1336.00,0.0078
1335.00,0.0077
1334.00,0.0075
1333.00,0.0073
1332.00,0.0071
1331.00,0.0069
1330.00,0.0068
1329.00,0.0067
1328.00,0.0066
1327.00,0.0066
1326.00,0.0066
1325.00,0.0066
1324.00,0.0067
1323.00,0.0067
1322.00,0.0067
1321.00,0.0067
1320.00,0.0066
1319.00,0.0066
1318.00,0.0066
1317.00,0.0066
1316.00,0.0066
1315.00,0.0066
1314.00,0.0066
1313.00,0.0066
1312.00,0.0065
1311.00,0.0065
1310.00,0.0065
1309.00,0.0065
1308.00,0.0066
1307.00,0.0066
1306.00,0.0067
1305.00,0.0068
1304.00,0.0070
1303.00,0.0073
1302.00,0.0076
1301.00,0.0080
1300.00,0.0084
1299.00,0.0089
1298.00,0.0094
1297.00,0.0101
1296.00,0.0108
1295.00,0.0116
1294.00,0.0124
1293.00,0.0134
1292.00,0.0144
1291.00,0.0155
1290.00,0.0166
1289.00,0.0178
1288.00,0.0191
1287.00,0.0204
1286.00,0.0219
1285.00,0.0235
1284.00,0.0251
1283.00,0.0269
1282.00,0.0287
1281.00,0.0306
1280.00,0.0327
1279.00,0.0347
1278.00,0.0369
1277.00,0.0391
1276.00,0.0413
1275.00,0.0436
1274.00,0.0460
1273.00,0.0485
1272.00,0.0510
1271.00,0.0534
1270.00,0.0558
1269.00,0.0582
1268.00,0.0605
1267.00,0.0626
1266.00,0.0646
1265.00,0.0666
1264.00,0.0684
1263.00,0.0702
1262.00,0.0719
1261.00,0.0735
1260.00,0.0751
1259.00,0.0765
1258.00,0.0779
1257.00,0.0791
1256.00,0.0803
1255.00,0.0814
1254.00,0.0824
1253.00,0.0834
1252.00,0.0842
1251.00,0.0850
1250.00,0.0856
1249.00,0.0862
1248.00,0.0868
1247.00,0.0873
1246.00,0.0878
1245.00,0.0883
1244.00,0.0889
1243.00,0.0894
1242.00,0.0899
1241.00,0.0905
1240.00,0.0912
1239.00,0.0921
1238.00,0.0930
1237.00,0.0940
1236.00,0.0949
1235.00,0.0958
1234.00,0.0968
1233.00,0.0977
1232.00,0.0987
1231.00,0.0996
1230.00,0.1005
1229.00,0.1014
1228.00,0.1022
1227.00,0.1029
1226.00,0.1035
1225.00,0.1040
1224.00,0.1045
1223.00,0.1048
1222.00,0.1050
1221.00,0.1051
1220.00,0.1051
1219.00,0.1049
1218.00,0.1045
1217.00,0.1039
1216.00,0.1032
1215.00,0.1022
1214.00,0.1012
1213.00,0.1000
1212.00,0.0987
1211.00,0.0973
1210.00,0.0958
1209.00,0.0942
1208.00,0.0927
1207.00,0.0910
1206.00,0.0894
1205.00,0.0878
1204.00,0.0864
1203.00,0.0850
1202.00,0.0840
1201.00,0.0832
1200.00,0.0828
1199.00,0.0827
1198.00,0.0828
1197.00,0.0831
1196.00,0.0836
1195.00,0.0840
1194.00,0.0843
1193.00,0.0842
1192.00,0.0837
1191.00,0.0825
1190.00,0.0806
1189.00,0.0781
1188.00,0.0752
1187.00,0.0721
1186.00,0.0689
1185.00,0.0659
1184.00,0.0632
1183.00,0.0608
1182.00,0.0589
1181.00,0.0575
1180.00,0.0565
1179.00,0.0560
1178.00,0.0558
1177.00,0.0559
1176.00,0.0563
1175.00,0.0570
1174.00,0.0579
1173.00,0.0591
1172.00,0.0606
1171.00,0.0623
1170.00,0.0644
1169.00,0.0667
1168.00,0.0694
1167.00,0.0723
1166.00,0.0753
1165.00,0.0784
1164.00,0.0815
1163.00,0.0846
1162.00,0.0877
1161.00,0.0906
1160.00,0.0933
1159.00,0.0957
1158.00,0.0977
1157.00,0.0994
1156.00,0.1008
1155.00,0.1018
1154.00,0.1026
1153.00,0.1031
1152.00,0.1033
1151.00,0.1032
1150.00,0.1029
1149.00,0.1023
1148.00,0.1015
1147.00,0.1006
1146.00,0.0996
1145.00,0.0986
1144.00,0.0977
1143.00,0.0969
1142.00,0.0962
1141.00,0.0958
1140.00,0.0956
1139.00,0.0955
1138.00,0.0956
1137.00,0.0958
1136.00,0.0962
1135.00,0.0967
1134.00,0.0974
1133.00,0.0985
1132.00,0.0999
1131.00,0.1018
1130.00,0.1043
1129.00,0.1073
1128.00,0.1105
1127.00,0.1135
1126.00,0.1158
1125.00,0.1171
1124.00,0.1174
1123.00,0.1167
1122.00,0.1153
1121.00,0.1136
1120.00,0.1117
1119.00,0.1099
1118.00,0.1082
1117.00,0.1067
1116.00,0.1054
1115.00,0.1044
1114.00,0.1036
1113.00,0.1030
1112.00,0.1026
1111.00,0.1025
1110.00,0.1026
1109.00,0.1030
1108.00,0.1037
1107.00,0.1047
1106.00,0.1060
1105.00,0.1077
1104.00,0.1097
1103.00,0.1120
1102.00,0.1145
1101.00,0.1172
1100.00,0.1201
1099.00,0.1230
1098.00,0.1258
1097.00,0.1285
1096.00,0.1309
1095.00,0.1331
1094.00,0.1350
1093.00,0.1368
1092.00,0.1386
1091.00,0.1403
1090.00,0.1420
1089.00,0.1438
1088.00,0.1458
1087.00,0.1479
1086.00,0.1502
1085.00,0.1527
1084.00,0.1554
1083.00,0.1584
1082.00,0.1616
1081.00,0.1651
1080.00,0.1689
1079.00,0.1728
1078.00,0.1767
1077.00,0.1806
1076.00,0.1846
1075.00,0.1884
1074.00,0.1921
1073.00,0.1958
1072.00,0.1994
1071.00,0.2027
1070.00,0.2056
1069.00,0.2082
1068.00,0.2102
1067.00,0.2115
1066.00,0.2118
1065.00,0.2113
1064.00,0.2099
1063.00,0.2077
1062.00,0.2048
1061.00,0.2016
1060.00,0.1985
1059.00,0.1956
1058.00,0.1931
1057.00,0.1913
1056.00,0.1902
1055.00,0.1897
1054.00,0.1897
1053.00,0.1902
1052.00,0.1911
1051.00,0.1924
1050.00,0.1940
1049.00,0.1960
1048.00,0.1984
1047.00,0.2010
1046.00,0.2039
1045.00,0.2069
1044.00,0.2100
1043.00,0.2128
1042.00,0.2152
1041.00,0.2170
1040.00,0.2182
1039.00,0.2188
1038.00,0.2188
1037.00,0.2184
1036.00,0.2176
1035.00,0.2167
1034.00,0.2156
1033.00,0.2145
1032.00,0.2136
1031.00,0.2125
1030.00,0.2112
1029.00,0.2095
1028.00,0.2072
1027.00,0.2041
1026.00,0.2002
1025.00,0.1955
1024.00,0.1901
1023.00,0.1840
1022.00,0.1775
1021.00,0.1709
1020.00,0.1641
1019.00,0.1573
1018.00,0.1508
1017.00,0.1446
1016.00,0.1388
1015.00,0.1335
1014.00,0.1289
1013.00,0.1249
1012.00,0.1217
1011.00,0.1192
1010.00,0.1173
1009.00,0.1158
1008.00,0.1147
1007.00,0.1138
1006.00,0.1128
1005.00,0.1116
1004.00,0.1099
1003.00,0.1075
1002.00,0.1042
1001.00,0.1001
1000.00,0.0953
999.00,0.0900
998.00,0.0848
997.00,0.0799
996.00,0.0756
995.00,0.0719
994.00,0.0688
993.00,0.0663
992.00,0.0642
991.00,0.0623
990.00,0.0607
989.00,0.0591
988.00,0.0574
987.00,0.0556
986.00,0.0537
985.00,0.0517
984.00,0.0498
983.00,0.0482
982.00,0.0470
981.00,0.0460
980.00,0.0453
979.00,0.0448
978.00,0.0446
977.00,0.0445
976.00,0.0445
975.00,0.0446
974.00,0.0447
973.00,0.0448
972.00,0.0448
971.00,0.0447
970.00,0.0442
969.00,0.0432
968.00,0.0414
967.00,0.0389
966.00,0.0356
965.00,0.0320
964.00,0.0280
963.00,0.0241
962.00,0.0203
961.00,0.0170
960.00,0.0141
959.00,0.0116
958.00,0.0097
957.00,0.0083
956.00,0.0073
955.00,0.0066
954.00,0.0061
953.00,0.0059
952.00,0.0059
951.00,0.0062
950.00,0.0068
949.00,0.0075
948.00,0.0085
947.00,0.0098
946.00,0.0114
945.00,0.0135
944.00,0.0160
943.00,0.0190
942.00,0.0226
941.00,0.0267
940.00,0.0313
939.00,0.0365
938.00,0.0422
937.00,0.0480
936.00,0.0539
935.00,0.0596
934.00,0.0650
933.00,0.0698
932.00,0.0740
931.00,0.0775
930.00,0.0804
929.00,0.0826
928.00,0.0840
927.00,0.0848
926.00,0.0849
925.00,0.0844
924.00,0.0835
923.00,0.0822
922.00,0.0806
921.00,0.0786
920.00,0.0764
919.00,0.0739
918.00,0.0712
917.00,0.0684
916.00,0.0652
915.00,0.0619
914.00,0.0583
913.00,0.0547
912.00,0.0510
911.00,0.0474
910.00,0.0441
909.00,0.0410
908.00,0.0382
907.00,0.0358
906.00,0.0337
905.00,0.0319
904.00,0.0305
903.00,0.0293
902.00,0.0284
901.00,0.0277
900.00,0.0272
899.00,0.0269
898.00,0.0266
897.00,0.0265
896.00,0.0265
895.00,0.0267
894.00,0.0269
893.00,0.0271
892.00,0.0272
891.00,0.0272
890.00,0.0270
889.00,0.0266
888.00,0.0257
887.00,0.0244
886.00,0.0227
885.00,0.0205
884.00,0.0181
883.00,0.0154
882.00,0.0128
881.00,0.0104
880.00,0.0084
879.00,0.0071
878.00,0.0063
877.00,0.0060
876.00,0.0061
875.00,0.0065
874.00,0.0070
873.00,0.0075
872.00,0.0078
871.00,0.0079
870.00,0.0079
869.00,0.0078
868.00,0.0077
867.00,0.0078
866.00,0.0080
865.00,0.0084
864.00,0.0091
863.00,0.0102
862.00,0.0116
861.00,0.0135
860.00,0.0156
859.00,0.0180
858.00,0.0207
857.00,0.0237
856.00,0.0270
855.00,0.0305
854.00,0.0341
853.00,0.0377
852.00,0.0413
851.00,0.0447
850.00,0.0476
849.00,0.0501
848.00,0.0520
847.00,0.0530
846.00,0.0533
845.00,0.0527
844.00,0.0512
843.00,0.0489
842.00,0.0459
841.00,0.0425
840.00,0.0389
839.00,0.0352
838.00,0.0317
837.00,0.0283
836.00,0.0251
835.00,0.0222
834.00,0.0196
833.00,0.0173
832.00,0.0153
831.00,0.0136
830.00,0.0121
829.00,0.0108
828.00,0.0098
827.00,0.0089
826.00,0.0081
825.00,0.0076
824.00,0.0072
823.00,0.0070
822.00,0.0069
821.00,0.0067
820.00,0.0066
819.00,0.0065
818.00,0.0065
817.00,0.0065
816.00,0.0067
815.00,0.0070
814.00,0.0073
813.00,0.0078
812.00,0.0084
811.00,0.0090
810.00,0.0098
809.00,0.0106
808.00,0.0113
807.00,0.0121
806.00,0.0128
805.00,0.0135
804.00,0.0139
803.00,0.0142
802.00,0.0144
801.00,0.0145
800.00,0.0143
799.00,0.0140
798.00,0.0136
797.00,0.0131
796.00,0.0125
795.00,0.0117
794.00,0.0109
793.00,0.0101
792.00,0.0094
791.00,0.0088
790.00,0.0083
789.00,0.0079
788.00,0.0075
787.00,0.0071
786.00,0.0068
785.00,0.0066
784.00,0.0066
783.00,0.0066
782.00,0.0069
781.00,0.0072
780.00,0.0077
779.00,0.0083
778.00,0.0090
777.00,0.0099
776.00,0.0107
775.00,0.0114
774.00,0.0118
773.00,0.0120
772.00,0.0120
771.00,0.0118
770.00,0.0114
769.00,0.0108
768.00,0.0100
767.00,0.0091
766.00,0.0084
765.00,0.0078
764.00,0.0073
763.00,0.0070
762.00,0.0070
761.00,0.0070
760.00,0.0072
759.00,0.0074
758.00,0.0078
757.00,0.0084
756.00,0.0090
755.00,0.0098
754.00,0.0108
753.00,0.0121
752.00,0.0136
751.00,0.0154
750.00,0.0173
749.00,0.0194
748.00,0.0215
747.00,0.0235
746.00,0.0253
745.00,0.0269
744.00,0.0282
743.00,0.0293
742.00,0.0303
741.00,0.0312
740.00,0.0320
739.00,0.0326
738.00,0.0331
737.00,0.0335
736.00,0.0338
735.00,0.0339
734.00,0.0337
733.00,0.0333
732.00,0.0329
731.00,0.0326
730.00,0.0323
729.00,0.0321
728.00,0.0318
727.00,0.0315
726.00,0.0312
725.00,0.0310
724.00,0.0308
723.00,0.0305
722.00,0.0300
721.00,0.0294
720.00,0.0287
719.00,0.0281
718.00,0.0275
717.00,0.0272
716.00,0.0271
715.00,0.0272
714.00,0.0276
713.00,0.0283
712.00,0.0293
711.00,0.0306
710.00,0.0321
709.00,0.0338
708.00,0.0356
707.00,0.0374
706.00,0.0392
705.00,0.0406
704.00,0.0417
703.00,0.0425
702.00,0.0430
701.00,0.0432
700.00,0.0431
699.00,0.0425
698.00,0.0414
697.00,0.0401
696.00,0.0384
695.00,0.0366
694.00,0.0348
693.00,0.0328
692.00,0.0308
691.00,0.0288
690.00,0.0267
689.00,0.0247
688.00,0.0228
687.00,0.0212
686.00,0.0197
685.00,0.0184
684.00,0.0172
683.00,0.0161
682.00,0.0152
681.00,0.0145
680.00,0.0140
679.00,0.0136
678.00,0.0133
677.00,0.0131
676.00,0.0130
675.00,0.0131
674.00,0.0132
673.00,0.0135
672.00,0.0138
671.00,0.0138
670.00,0.0137
669.00,0.0136
668.00,0.0137
667.00,0.0142
666.00,0.0144
665.00,0.0144
664.00,0.0145
663.00,0.0151
662.00,0.0164
661.00,0.0183
660.00,0.0208
659.00,0.0233
658.00,0.0254
657.00,0.0265
656.00,0.0263
655.00,0.0247
654.00,0.0223
653.00,0.0197
652.00,0.0172
651.00,0.0151
650.00,0.0135
649.00,0.0126
648.00,0.0125
647.00,0.0131
646.00,0.0142
645.00,0.0156
644.00,0.0166
643.00,0.0166
642.00,0.0157
641.00,0.0141
640.00,0.0123
639.00,0.0108
638.00,0.0095
637.00,0.0084
636.00,0.0076
635.00,0.0070
634.00,0.0067
633.00,0.0067
632.00,0.0067
631.00,0.0069
630.00,0.0072
629.00,0.0078
628.00,0.0086
627.00,0.0094
626.00,0.0102
625.00,0.0111
624.00,0.0121
623.00,0.0133
622.00,0.0147
621.00,0.0162
620.00,0.0180
619.00,0.0201
618.00,0.0223
617.00,0.0246
616.00,0.0270
615.00,0.0291
614.00,0.0309
613.00,0.0324
612.00,0.0340
611.00,0.0358
610.00,0.0379
609.00,0.0404
608.00,0.0433
607.00,0.0464
606.00,0.0494
605.00,0.0521
604.00,0.0542
603.00,0.0557
602.00,0.0567
601.00,0.0575
600.00,0.0580
599.00,0.0584
598.00,0.0584
597.00,0.0583
596.00,0.0580
595.00,0.0575
594.00,0.0568
593.00,0.0559
592.00,0.0550
591.00,0.0540
590.00,0.0530
589.00,0.0521
588.00,0.0513
587.00,0.0507
586.00,0.0503
585.00,0.0503
584.00,0.0507
583.00,0.0513
582.00,0.0519
581.00,0.0523
580.00,0.0525
579.00,0.0525
578.00,0.0522
577.00,0.0519
576.00,0.0514
575.00,0.0507
574.00,0.0499
573.00,0.0492
572.00,0.0484
571.00,0.0476
570.00,0.0463
569.00,0.0449
568.00,0.0434
567.00,0.0422
566.00,0.0411
565.00,0.0402
564.00,0.0394
563.00,0.0383
562.00,0.0371
561.00,0.0362
560.00,0.0358
559.00,0.0356
558.00,0.0352
557.00,0.0346
556.00,0.0338
555.00,0.0330
554.00,0.0323
553.00,0.0316
552.00,0.0310
551.00,0.0306
550.00,0.0303
549.00,0.0302
548.00,0.0304
547.00,0.0310
546.00,0.0317
545.00,0.0324
544.00,0.0331
543.00,0.0337
542.00,0.0339
541.00,0.0339
540.00,0.0338
539.00,0.0336
538.00,0.0332
537.00,0.0330
536.00,0.0329
535.00,0.0327
534.00,0.0323
533.00,0.0317
532.00,0.0308
531.00,0.0299
530.00,0.0291
529.00,0.0285
528.00,0.0281
527.00,0.0281
526.00,0.0283
525.00,0.0289
524.00,0.0295
523.00,0.0298
522.00,0.0298
521.00,0.0297
520.00,0.0295
519.00,0.0293
518.00,0.0291
517.00,0.0290
516.00,0.0287
515.00,0.0280
514.00,0.0267
513.00,0.0251
512.00,0.0237
511.00,0.0225
510.00,0.0216
509.00,0.0206
508.00,0.0194
507.00,0.0182
506.00,0.0171
505.00,0.0163
504.00,0.0155
503.00,0.0143
502.00,0.0128
501.00,0.0116
500.00,0.0109
499.00,0.0106
498.00,0.0103
497.00,0.0098
496.00,0.0092
495.00,0.0084
494.00,0.0075
493.00,0.0069
492.00,0.0068
491.00,0.0072
490.00,0.0077
489.00,0.0080
488.00,0.0080
487.00,0.0076
486.00,0.0071
485.00,0.0071
484.00,0.0078
483.00,0.0087
482.00,0.0094
481.00,0.0100
480.00,0.0108
479.00,0.0114
478.00,0.0116
477.00,0.0116
476.00,0.0119
475.00,0.0124
474.00,0.0128
473.00,0.0131
472.00,0.0131
471.00,0.0128
470.00,0.0123
469.00,0.0120
468.00,0.0124
467.00,0.0129
466.00,0.0128
465.00,0.0123
464.00,0.0121
463.00,0.0122
462.00,0.0122
461.00,0.0115
460.00,0.0102
459.00,0.0082
458.00,0.0082
457.00,0.0075
456.00,0.0068
455.00,0.0062
454.00,0.0056
453.00,0.0053
452.00,0.0049
451.00,0.0037
450.00,0.0020
