Created as New Dataset,Sample 001 By Administrator Date Monday, June 09 2025
cm-1,A
4000.00,0.0039
3999.00,0.0039
3998.00,0.0040
3997.00,0.0040
3996.00,0.0040
3995.00,0.0040
3994.00,0.0040
3993.00,0.0040
3992.00,0.0039
3991.00,0.0039
3990.00,0.0039
3989.00,0.0039
3988.00,0.0040
3987.00,0.0040
3986.00,0.0040
3985.00,0.0040
3984.00,0.0040
3983.00,0.0040
3982.00,0.0040
3981.00,0.0040
3980.00,0.0040
3979.00,0.0040
3978.00,0.0040
3977.00,0.0040
3976.00,0.0040
3975.00,0.0040
3974.00,0.0040
3973.00,0.0040
3972.00,0.0041
3971.00,0.0041
3970.00,0.0041
3969.00,0.0041
3968.00,0.0041
3967.00,0.0040
3966.00,0.0040
3965.00,0.0040
3964.00,0.0040
3963.00,0.0040
3962.00,0.0040
3961.00,0.0040
3960.00,0.0041
3959.00,0.0041
3958.00,0.0041
3957.00,0.0041
3956.00,0.0041
3955.00,0.0041
3954.00,0.0041
3953.00,0.0041
3952.00,0.0041
3951.00,0.0041
3950.00,0.0041
3949.00,0.0041
3948.00,0.0041
3947.00,0.0041
3946.00,0.0042
3945.00,0.0042
3944.00,0.0041
3943.00,0.0041
3942.00,0.0041
3941.00,0.0041
3940.00,0.0041
3939.00,0.0041
3938.00,0.0041
3937.00,0.0042
3936.00,0.0042
3935.00,0.0042
3934.00,0.0042
3933.00,0.0041
3932.00,0.0041
3931.00,0.0040
3930.00,0.0040
3929.00,0.0040
3928.00,0.0040
3927.00,0.0041
3926.00,0.0041
3925.00,0.0041
3924.00,0.0041
3923.00,0.0041
3922.00,0.0042
3921.00,0.0042
3920.00,0.0042
3919.00,0.0041
3918.00,0.0041
3917.00,0.0041
3916.00,0.0041
3915.00,0.0041
3914.00,0.0041
3913.00,0.0041
3912.00,0.0040
3911.00,0.0040
3910.00,0.0040
3909.00,0.0040
3908.00,0.0041
3907.00,0.0041
3906.00,0.0042
3905.00,0.0042
3904.00,0.0043
3903.00,0.0043
3902.00,0.0043
3901.00,0.0042
3900.00,0.0041
3899.00,0.0040
3898.00,0.0040
3897.00,0.0040
3896.00,0.0041
3895.00,0.0041
3894.00,0.0041
3893.00,0.0041
3892.00,0.0041
3891.00,0.0041
3890.00,0.0041
3889.00,0.0042
3888.00,0.0042
3887.00,0.0042
3886.00,0.0043
3885.00,0.0043
3884.00,0.0043
3883.00,0.0043
3882.00,0.0042
3881.00,0.0042
3880.00,0.0041
3879.00,0.0041
3878.00,0.0041
3877.00,0.0041
3876.00,0.0041
3875.00,0.0041
3874.00,0.0041
3873.00,0.0042
3872.00,0.0042
3871.00,0.0043
3870.00,0.0043
3869.00,0.0043
3868.00,0.0043
3867.00,0.0043
3866.00,0.0043
3865.00,0.0042
3864.00,0.0041
3863.00,0.0041
3862.00,0.0041
3861.00,0.0041
3860.00,0.0041
3859.00,0.0041
3858.00,0.0042
3857.00,0.0042
3856.00,0.0043
3855.00,0.0043
3854.00,0.0043
3853.00,0.0043
3852.00,0.0042
3851.00,0.0041
3850.00,0.0041
3849.00,0.0041
3848.00,0.0041
3847.00,0.0042
3846.00,0.0042
3845.00,0.0042
3844.00,0.0042
3843.00,0.0042
3842.00,0.0043
3841.00,0.0043
3840.00,0.0043
3839.00,0.0044
3838.00,0.0044
3837.00,0.0044
3836.00,0.0044
3835.00,0.0044
3834.00,0.0043
3833.00,0.0043
3832.00,0.0043
3831.00,0.0042
3830.00,0.0042
3829.00,0.0041
3828.00,0.0041
3827.00,0.0041
3826.00,0.0042
3825.00,0.0043
3824.00,0.0044
3823.00,0.0044
3822.00,0.0044
3821.00,0.0044
3820.00,0.0044
3819.00,0.0044
3818.00,0.0044
3817.00,0.0044
3816.00,0.0043
3815.00,0.0042
3814.00,0.0042
3813.00,0.0042
3812.00,0.0042
3811.00,0.0042
3810.00,0.0043
3809.00,0.0043
3808.00,0.0043
3807.00,0.0043
3806.00,0.0044
3805.00,0.0044
3804.00,0.0044
3803.00,0.0044
3802.00,0.0043
3801.00,0.0043
3800.00,0.0043
3799.00,0.0044
3798.00,0.0043
3797.00,0.0043
3796.00,0.0043
3795.00,0.0043
3794.00,0.0043
3793.00,0.0043
3792.00,0.0043
3791.00,0.0043
3790.00,0.0043
3789.00,0.0043
3788.00,0.0044
3787.00,0.0044
3786.00,0.0044
3785.00,0.0045
3784.00,0.0045
3783.00,0.0045
3782.00,0.0045
3781.00,0.0045
3780.00,0.0045
3779.00,0.0045
3778.00,0.0045
3777.00,0.0045
3776.00,0.0045
3775.00,0.0045
3774.00,0.0045
3773.00,0.0045
3772.00,0.0046
3771.00,0.0046
3770.00,0.0047
3769.00,0.0047
3768.00,0.0047
3767.00,0.0048
3766.00,0.0048
3765.00,0.0048
3764.00,0.0048
3763.00,0.0048
3762.00,0.0049
3761.00,0.0049
3760.00,0.0049
3759.00,0.0050
3758.00,0.0050
3757.00,0.0050
3756.00,0.0051
3755.00,0.0051
3754.00,0.0052
3753.00,0.0052
3752.00,0.0052
3751.00,0.0053
3750.00,0.0053
3749.00,0.0054
3748.00,0.0054
3747.00,0.0054
3746.00,0.0054
3745.00,0.0054
3744.00,0.0054
3743.00,0.0054
3742.00,0.0054
3741.00,0.0054
3740.00,0.0054
3739.00,0.0055
3738.00,0.0055
3737.00,0.0055
3736.00,0.0055
3735.00,0.0055
3734.00,0.0056
3733.00,0.0055
3732.00,0.0055
3731.00,0.0055
3730.00,0.0055
3729.00,0.0055
3728.00,0.0055
3727.00,0.0055
3726.00,0.0056
3725.00,0.0056
3724.00,0.0056
3723.00,0.0057
3722.00,0.0057
3721.00,0.0058
3720.00,0.0058
3719.00,0.0059
3718.00,0.0059
3717.00,0.0059
3716.00,0.0060
3715.00,0.0060
3714.00,0.0061
3713.00,0.0061
3712.00,0.0062
3711.00,0.0063
3710.00,0.0064
3709.00,0.0065
3708.00,0.0065
3707.00,0.0066
3706.00,0.0067
3705.00,0.0067
3704.00,0.0068
3703.00,0.0069
3702.00,0.0070
3701.00,0.0071
3700.00,0.0072
3699.00,0.0073
3698.00,0.0073
3697.00,0.0074
3696.00,0.0076
3695.00,0.0077
3694.00,0.0078
3693.00,0.0079
3692.00,0.0080
3691.00,0.0082
3690.00,0.0083
3689.00,0.0086
3688.00,0.0088
3687.00,0.0090
3686.00,0.0092
3685.00,0.0093
3684.00,0.0095
3683.00,0.0097
3682.00,0.0099
3681.00,0.0101
3680.00,0.0103
3679.00,0.0106
3678.00,0.0108
3677.00,0.0111
3676.00,0.0114
3675.00,0.0117
3674.00,0.0120
3673.00,0.0124
3672.00,0.0126
3671.00,0.0130
3670.00,0.0133
3669.00,0.0137
3668.00,0.0140
3667.00,0.0143
3666.00,0.0146
3665.00,0.0149
3664.00,0.0152
3663.00,0.0156
3662.00,0.0159
3661.00,0.0164
3660.00,0.0168
3659.00,0.0173
3658.00,0.0178
3657.00,0.0183
3656.00,0.0189
3655.00,0.0195
3654.00,0.0199
3653.00,0.0204
3652.00,0.0207
3651.00,0.0212
3650.00,0.0218
3649.00,0.0226
3648.00,0.0234
3647.00,0.0242
3646.00,0.0249
3645.00,0.0255
3644.00,0.0260
3643.00,0.0265
3642.00,0.0270
3641.00,0.0275
3640.00,0.0281
3639.00,0.0287
3638.00,0.0294
3637.00,0.0300
3636.00,0.0306
3635.00,0.0312
3634.00,0.0319
3633.00,0.0325
3632.00,0.0330
3631.00,0.0336
3630.00,0.0344
3629.00,0.0354
3628.00,0.0366
3627.00,0.0377
3626.00,0.0385
3625.00,0.0392
3624.00,0.0398
3623.00,0.0403
3622.00,0.0408
3621.00,0.0414
3620.00,0.0422
3619.00,0.0431
3618.00,0.0441
3617.00,0.0449
3616.00,0.0457
3615.00,0.0464
3614.00,0.0471
3613.00,0.0478
3612.00,0.0485
3611.00,0.0493
3610.00,0.0500
3609.00,0.0509
3608.00,0.0518
3607.00,0.0526
3606.00,0.0534
3605.00,0.0541
3604.00,0.0548
3603.00,0.0554
3602.00,0.0561
3601.00,0.0568
3600.00,0.0576
3599.00,0.0583
3598.00,0.0591
3597.00,0.0599
3596.00,0.0607
3595.00,0.0615
3594.00,0.0624
3593.00,0.0632
3592.00,0.0639
3591.00,0.0646
3590.00,0.0652
3589.00,0.0659
3588.00,0.0668
3587.00,0.0679
3586.00,0.0689
3585.00,0.0698
3584.00,0.0706
3583.00,0.0713
3582.00,0.0719
3581.00,0.0725
3580.00,0.0732
3579.00,0.0739
3578.00,0.0746
3577.00,0.0754
3576.00,0.0763
3575.00,0.0771
3574.00,0.0779
3573.00,0.0786
3572.00,0.0793
3571.00,0.0799
3570.00,0.0803
3569.00,0.0809
3568.00,0.0818
3567.00,0.0829
3566.00,0.0842
3565.00,0.0854
3564.00,0.0863
3563.00,0.0871
3562.00,0.0877
3561.00,0.0883
3560.00,0.0890
3559.00,0.0897
3558.00,0.0904
3557.00,0.0911
3556.00,0.0917
3555.00,0.0923
3554.00,0.0930
3553.00,0.0938
3552.00,0.0946
3551.00,0.0955
3550.00,0.0963
3549.00,0.0970
3548.00,0.0977
3547.00,0.0985
3546.00,0.0994
3545.00,0.1003
3544.00,0.1012
3543.00,0.1020
3542.00,0.1027
3541.00,0.1034
3540.00,0.1040
3539.00,0.1046
3538.00,0.1053
3537.00,0.1060
3536.00,0.1068
3535.00,0.1075
3534.00,0.1082
3533.00,0.1089
3532.00,0.1095
3531.00,0.1102
3530.00,0.1109
3529.00,0.1116
3528.00,0.1125
3527.00,0.1133
3526.00,0.1141
3525.00,0.1149
3524.00,0.1156
3523.00,0.1163
3522.00,0.1170
3521.00,0.1177
3520.00,0.1183
3519.00,0.1190
3518.00,0.1197
3517.00,0.1204
3516.00,0.1212
3515.00,0.1219
3514.00,0.1226
3513.00,0.1232
3512.00,0.1238
3511.00,0.1243
3510.00,0.1249
3509.00,0.1256
3508.00,0.1264
3507.00,0.1271
3506.00,0.1278
3505.00,0.1285
3504.00,0.1293
3503.00,0.1301
3502.00,0.1309
3501.00,0.1317
3500.00,0.1325
3499.00,0.1331
3498.00,0.1338
3497.00,0.1344
3496.00,0.1350
3495.00,0.1357
3494.00,0.1364
3493.00,0.1371
3492.00,0.1377
3491.00,0.1384
3490.00,0.1391
3489.00,0.1398
3488.00,0.1405
3487.00,0.1412
3486.00,0.1418
3485.00,0.1424
3484.00,0.1431
3483.00,0.1438
3482.00,0.1446
3481.00,0.1454
3480.00,0.1461
3479.00,0.1468
3478.00,0.1474
3477.00,0.1481
3476.00,0.1487
3475.00,0.1493
3474.00,0.1500
3473.00,0.1507
3472.00,0.1514
3471.00,0.1521
3470.00,0.1529
3469.00,0.1536
3468.00,0.1543
3467.00,0.1549
3466.00,0.1554
3465.00,0.1560
3464.00,0.1566
3463.00,0.1573
3462.00,0.1580
3461.00,0.1587
3460.00,0.1594
3459.00,0.1600
3458.00,0.1606
3457.00,0.1611
3456.00,0.1617
3455.00,0.1623
3454.00,0.1630
3453.00,0.1637
3452.00,0.1643
3451.00,0.1649
3450.00,0.1654
3449.00,0.1660
3448.00,0.1666
3447.00,0.1674
3446.00,0.1681
3445.00,0.1689
3444.00,0.1696
3443.00,0.1702
3442.00,0.1708
3441.00,0.1714
3440.00,0.1721
3439.00,0.1728
3438.00,0.1734
3437.00,0.1741
3436.00,0.1747
3435.00,0.1752
3434.00,0.1757
3433.00,0.1763
3432.00,0.1768
3431.00,0.1774
3430.00,0.1780
3429.00,0.1786
3428.00,0.1792
3427.00,0.1797
3426.00,0.1802
3425.00,0.1808
3424.00,0.1813
3423.00,0.1819
3422.00,0.1825
3421.00,0.1831
3420.00,0.1837
3419.00,0.1843
3418.00,0.1848
3417.00,0.1854
3416.00,0.1859
3415.00,0.1864
3414.00,0.1870
3413.00,0.1875
3412.00,0.1880
3411.00,0.1885
3410.00,0.1890
3409.00,0.1894
3408.00,0.1898
3407.00,0.1902
3406.00,0.1906
3405.00,0.1911
3404.00,0.1917
3403.00,0.1923
3402.00,0.1928
3401.00,0.1932
3400.00,0.1935
3399.00,0.1938
3398.00,0.1941
3397.00,0.1945
3396.00,0.1948
3395.00,0.1952
3394.00,0.1956
3393.00,0.1960
3392.00,0.1963
3391.00,0.1967
3390.00,0.1969
3389.00,0.1971
3388.00,0.1973
3387.00,0.1975
3386.00,0.1977
3385.00,0.1980
3384.00,0.1983
3383.00,0.1986
3382.00,0.1988
3381.00,0.1990
3380.00,0.1992
3379.00,0.1994
3378.00,0.1996
3377.00,0.1998
3376.00,0.1999
3375.00,0.2001
3374.00,0.2003
3373.00,0.2005
3372.00,0.2007
3371.00,0.2009
3370.00,0.2010
3369.00,0.2012
3368.00,0.2013
3367.00,0.2013
3366.00,0.2014
3365.00,0.2015
3364.00,0.2016
3363.00,0.2017
3362.00,0.2017
3361.00,0.2018
3360.00,0.2017
3359.00,0.2017
3358.00,0.2017
3357.00,0.2017
3356.00,0.2017
3355.00,0.2018
3354.00,0.2018
3353.00,0.2019
3352.00,0.2019
3351.00,0.2020
3350.00,0.2019
3349.00,0.2019
3348.00,0.2018
3347.00,0.2018
3346.00,0.2018
3345.00,0.2018
3344.00,0.2017
3343.00,0.2017
3342.00,0.2017
3341.00,0.2017
3340.00,0.2016
3339.00,0.2016
3338.00,0.2015
3337.00,0.2014
3336.00,0.2013
3335.00,0.2013
3334.00,0.2013
3333.00,0.2013
3332.00,0.2012
3331.00,0.2011
3330.00,0.2010
3329.00,0.2009
3328.00,0.2008
3327.00,0.2008
3326.00,0.2007
3325.00,0.2007
3324.00,0.2006
3323.00,0.2005
3322.00,0.2004
3321.00,0.2003
3320.00,0.2002
3319.00,0.2001
3318.00,0.2000
3317.00,0.1999
3316.00,0.1998
3315.00,0.1997
3314.00,0.1996
3313.00,0.1995
3312.00,0.1994
3311.00,0.1993
3310.00,0.1992
3309.00,0.1991
3308.00,0.1990
3307.00,0.1988
3306.00,0.1987
3305.00,0.1985
3304.00,0.1983
3303.00,0.1981
3302.00,0.1979
3301.00,0.1977
3300.00,0.1975
3299.00,0.1974
3298.00,0.1972
3297.00,0.1970
3296.00,0.1968
3295.00,0.1966
3294.00,0.1964
3293.00,0.1961
3292.00,0.1959
3291.00,0.1958
3290.00,0.1956
3289.00,0.1954
3288.00,0.1952
3287.00,0.1950
3286.00,0.1947
3285.00,0.1944
3284.00,0.1941
3283.00,0.1938
3282.00,0.1936
3281.00,0.1934
3280.00,0.1931
3279.00,0.1928
3278.00,0.1924
3277.00,0.1921
3276.00,0.1917
3275.00,0.1914
3274.00,0.1910
3273.00,0.1907
3272.00,0.1903
3271.00,0.1899
3270.00,0.1896
3269.00,0.1892
3268.00,0.1888
3267.00,0.1884
3266.00,0.1880
3265.00,0.1876
3264.00,0.1872
3263.00,0.1868
3262.00,0.1863
3261.00,0.1859
3260.00,0.1854
3259.00,0.1849
3258.00,0.1844
3257.00,0.1839
3256.00,0.1835
3255.00,0.1830
3254.00,0.1826
3253.00,0.1822
3252.00,0.1817
3251.00,0.1812
3250.00,0.1806
3249.00,0.1801
3248.00,0.1795
3247.00,0.1790
3246.00,0.1785
3245.00,0.1780
3244.00,0.1775
3243.00,0.1770
3242.00,0.1765
3241.00,0.1760
3240.00,0.1754
3239.00,0.1748
3238.00,0.1743
3237.00,0.1738
3236.00,0.1732
3235.00,0.1727
3234.00,0.1722
3233.00,0.1717
3232.00,0.1712
3231.00,0.1706
3230.00,0.1700
3229.00,0.1693
3228.00,0.1687
3227.00,0.1681
3226.00,0.1675
3225.00,0.1669
3224.00,0.1663
3223.00,0.1657
3222.00,0.1650
3221.00,0.1644
3220.00,0.1638
3219.00,0.1632
3218.00,0.1626
3217.00,0.1620
3216.00,0.1614
3215.00,0.1608
3214.00,0.1602
3213.00,0.1595
3212.00,0.1589
3211.00,0.1582
3210.00,0.1575
3209.00,0.1569
3208.00,0.1562
3207.00,0.1556
3206.00,0.1549
3205.00,0.1541
3204.00,0.1534
3203.00,0.1527
3202.00,0.1519
3201.00,0.1512
3200.00,0.1505
3199.00,0.1499
3198.00,0.1492
3197.00,0.1485
3196.00,0.1479
3195.00,0.1471
3194.00,0.1464
3193.00,0.1456
3192.00,0.1448
3191.00,0.1441
3190.00,0.1433
3189.00,0.1426
3188.00,0.1418
3187.00,0.1411
3186.00,0.1404
3185.00,0.1397
3184.00,0.1389
3183.00,0.1382
3182.00,0.1374
3181.00,0.1366
3180.00,0.1358
3179.00,0.1351
3178.00,0.1343
3177.00,0.1336
3176.00,0.1328
3175.00,0.1320
3174.00,0.1312
3173.00,0.1304
3172.00,0.1297
3171.00,0.1290
3170.00,0.1282
3169.00,0.1275
3168.00,0.1268
3167.00,0.1260
3166.00,0.1252
3165.00,0.1244
3164.00,0.1237
3163.00,0.1229
3162.00,0.1222
3161.00,0.1215
3160.00,0.1207
3159.00,0.1199
3158.00,0.1192
3157.00,0.1184
3156.00,0.1177
3155.00,0.1169
3154.00,0.1162
3153.00,0.1154
3152.00,0.1147
3151.00,0.1140
3150.00,0.1132
3149.00,0.1125
3148.00,0.1118
3147.00,0.1110
3146.00,0.1103
3145.00,0.1096
3144.00,0.1090
3143.00,0.1083
3142.00,0.1076
3141.00,0.1069
3140.00,0.1062
3139.00,0.1055
3138.00,0.1048
3137.00,0.1041
3136.00,0.1034
3135.00,0.1028
3134.00,0.1021
3133.00,0.1015
3132.00,0.1008
3131.00,0.1001
3130.00,0.0995
3129.00,0.0988
3128.00,0.0982
3127.00,0.0976
3126.00,0.0970
3125.00,0.0964
3124.00,0.0958
3123.00,0.0952
3122.00,0.0947
3121.00,0.0941
3120.00,0.0935
3119.00,0.0929
3118.00,0.0923
3117.00,0.0917
3116.00,0.0911
3115.00,0.0906
3114.00,0.0900
3113.00,0.0895
3112.00,0.0889
3111.00,0.0884
3110.00,0.0878
3109.00,0.0873
3108.00,0.0868
3107.00,0.0863
3106.00,0.0858
3105.00,0.0853
3104.00,0.0848
3103.00,0.0843
3102.00,0.0838
3101.00,0.0834
3100.00,0.0829
3099.00,0.0824
3098.00,0.0820
3097.00,0.0815
3096.00,0.0811
3095.00,0.0807
3094.00,0.0803
3093.00,0.0799
3092.00,0.0794
3091.00,0.0790
3090.00,0.0786
3089.00,0.0782
3088.00,0.0777
3087.00,0.0773
3086.00,0.0769
3085.00,0.0764
3084.00,0.0760
3083.00,0.0755
3082.00,0.0751
3081.00,0.0746
3080.00,0.0742
3079.00,0.0738
3078.00,0.0735
3077.00,0.0731
3076.00,0.0728
3075.00,0.0724
3074.00,0.0720
3073.00,0.0716
3072.00,0.0712
3071.00,0.0708
3070.00,0.0704
3069.00,0.0700
3068.00,0.0696
3067.00,0.0692
3066.00,0.0688
3065.00,0.0684
3064.00,0.0680
3063.00,0.0675
3062.00,0.0671
3061.00,0.0667
3060.00,0.0663
3059.00,0.0659
3058.00,0.0654
3057.00,0.0650
3056.00,0.0646
3055.00,0.0642
3054.00,0.0637
3053.00,0.0633
3052.00,0.0629
3051.00,0.0624
3050.00,0.0620
3049.00,0.0616
3048.00,0.0612
3047.00,0.0608
3046.00,0.0604
3045.00,0.0601
3044.00,0.0597
3043.00,0.0593
3042.00,0.0589
3041.00,0.0585
3040.00,0.0581
3039.00,0.0577
3038.00,0.0573
3037.00,0.0570
3036.00,0.0566
3035.00,0.0563
3034.00,0.0559
3033.00,0.0556
3032.00,0.0553
3031.00,0.0549
3030.00,0.0546
3029.00,0.0542
3028.00,0.0539
3027.00,0.0536
3026.00,0.0532
3025.00,0.0529
3024.00,0.0526
3023.00,0.0523
3022.00,0.0520
3021.00,0.0517
3020.00,0.0514
3019.00,0.0511
3018.00,0.0508
3017.00,0.0505
3016.00,0.0503
3015.00,0.0500
3014.00,0.0498
3013.00,0.0495
3012.00,0.0493
3011.00,0.0491
3010.00,0.0488
3009.00,0.0486
3008.00,0.0484
3007.00,0.0481
3006.00,0.0479
3005.00,0.0477
3004.00,0.0475
3003.00,0.0474
3002.00,0.0472
3001.00,0.0471
3000.00,0.0469
2999.00,0.0468
2998.00,0.0468
2997.00,0.0467
2996.00,0.0467
2995.00,0.0466
2994.00,0.0466
2993.00,0.0466
2992.00,0.0466
2991.00,0.0466
2990.00,0.0466
2989.00,0.0465
2988.00,0.0466
2987.00,0.0466
2986.00,0.0467
2985.00,0.0468
2984.00,0.0469
2983.00,0.0470
2982.00,0.0471
2981.00,0.0473
2980.00,0.0474
2979.00,0.0475
2978.00,0.0477
2977.00,0.0478
2976.00,0.0479
2975.00,0.0481
2974.00,0.0483
2973.00,0.0485
2972.00,0.0487
2971.00,0.0489
2970.00,0.0491
2969.00,0.0493
2968.00,0.0495
2967.00,0.0496
2966.00,0.0497
2965.00,0.0498
2964.00,0.0499
2963.00,0.0499
2962.00,0.0500
2961.00,0.0501
2960.00,0.0501
2959.00,0.0500
2958.00,0.0499
2957.00,0.0498
2956.00,0.0496
2955.00,0.0495
2954.00,0.0493
2953.00,0.0492
2952.00,0.0491
2951.00,0.0489
2950.00,0.0488
2949.00,0.0487
2948.00,0.0486
2947.00,0.0485
2946.00,0.0485
2945.00,0.0484
2944.00,0.0484
2943.00,0.0484
2942.00,0.0485
2941.00,0.0486
2940.00,0.0486
2939.00,0.0486
2938.00,0.0486
2937.00,0.0487
2936.00,0.0487
2935.00,0.0488
2934.00,0.0488
2933.00,0.0488
2932.00,0.0488
2931.00,0.0487
2930.00,0.0487
2929.00,0.0486
2928.00,0.0486
2927.00,0.0485
2926.00,0.0485
2925.00,0.0484
2924.00,0.0483
2923.00,0.0482
2922.00,0.0480
2921.00,0.0478
2920.00,0.0475
2919.00,0.0471
2918.00,0.0468
2917.00,0.0464
2916.00,0.0461
2915.00,0.0457
2914.00,0.0453
2913.00,0.0448
2912.00,0.0444
2911.00,0.0441
2910.00,0.0437
2909.00,0.0434
2908.00,0.0431
2907.00,0.0429
2906.00,0.0426
2905.00,0.0424
2904.00,0.0421
2903.00,0.0418
2902.00,0.0415
2901.00,0.0412
2900.00,0.0409
2899.00,0.0406
2898.00,0.0403
2897.00,0.0400
2896.00,0.0397
2895.00,0.0395
2894.00,0.0392
2893.00,0.0389
2892.00,0.0387
2891.00,0.0384
2890.00,0.0381
2889.00,0.0379
2888.00,0.0376
2887.00,0.0374
2886.00,0.0371
2885.00,0.0369
2884.00,0.0367
2883.00,0.0365
2882.00,0.0364
2881.00,0.0362
2880.00,0.0360
2879.00,0.0359
2878.00,0.0357
2877.00,0.0355
2876.00,0.0354
2875.00,0.0352
2874.00,0.0350
2873.00,0.0347
2872.00,0.0345
2871.00,0.0342
2870.00,0.0340
2869.00,0.0337
2868.00,0.0334
2867.00,0.0331
2866.00,0.0328
2865.00,0.0325
2864.00,0.0323
2863.00,0.0321
2862.00,0.0319
2861.00,0.0318
2860.00,0.0317
2859.00,0.0316
2858.00,0.0315
2857.00,0.0315
2856.00,0.0314
2855.00,0.0313
2854.00,0.0312
2853.00,0.0311
2852.00,0.0309
2851.00,0.0306
2850.00,0.0303
2849.00,0.0299
2848.00,0.0295
2847.00,0.0290
2846.00,0.0286
2845.00,0.0281
2844.00,0.0277
2843.00,0.0273
2842.00,0.0270
2841.00,0.0266
2840.00,0.0264
2839.00,0.0261
2838.00,0.0259
2837.00,0.0257
2836.00,0.0254
2835.00,0.0252
2834.00,0.0251
2833.00,0.0249
2832.00,0.0247
2831.00,0.0245
2830.00,0.0244
2829.00,0.0243
2828.00,0.0242
2827.00,0.0240
2826.00,0.0239
2825.00,0.0237
2824.00,0.0236
2823.00,0.0235
2822.00,0.0233
2821.00,0.0232
2820.00,0.0231
2819.00,0.0229
2818.00,0.0227
2817.00,0.0226
2816.00,0.0225
2815.00,0.0223
2814.00,0.0222
2813.00,0.0221
2812.00,0.0220
2811.00,0.0219
2810.00,0.0217
2809.00,0.0216
2808.00,0.0215
2807.00,0.0214
2806.00,0.0213
2805.00,0.0212
2804.00,0.0211
2803.00,0.0210
2802.00,0.0210
2801.00,0.0209
2800.00,0.0208
2799.00,0.0207
2798.00,0.0205
2797.00,0.0204
2796.00,0.0203
2795.00,0.0202
2794.00,0.0200
2793.00,0.0199
2792.00,0.0198
2791.00,0.0197
2790.00,0.0196
2789.00,0.0195
2788.00,0.0194
2787.00,0.0194
2786.00,0.0194
2785.00,0.0193
2784.00,0.0192
2783.00,0.0191
2782.00,0.0190
2781.00,0.0189
2780.00,0.0188
2779.00,0.0187
2778.00,0.0186
2777.00,0.0186
2776.00,0.0185
2775.00,0.0184
2774.00,0.0184
2773.00,0.0183
2772.00,0.0182
2771.00,0.0181
2770.00,0.0180
2769.00,0.0179
2768.00,0.0179
2767.00,0.0178
2766.00,0.0178
2765.00,0.0177
2764.00,0.0176
2763.00,0.0175
2762.00,0.0174
2761.00,0.0174
2760.00,0.0173
2759.00,0.0173
2758.00,0.0172
2757.00,0.0171
2756.00,0.0170
2755.00,0.0170
2754.00,0.0169
2753.00,0.0169
2752.00,0.0168
2751.00,0.0168
2750.00,0.0167
2749.00,0.0167
2748.00,0.0166
2747.00,0.0166
2746.00,0.0165
2745.00,0.0164
2744.00,0.0164
2743.00,0.0163
2742.00,0.0163
2741.00,0.0162
2740.00,0.0162
2739.00,0.0161
2738.00,0.0161
2737.00,0.0160
2736.00,0.0160
2735.00,0.0159
2734.00,0.0159
2733.00,0.0158
2732.00,0.0158
2731.00,0.0158
2730.00,0.0157
2729.00,0.0156
2728.00,0.0156
2727.00,0.0155
2726.00,0.0154
2725.00,0.0154
2724.00,0.0153
2723.00,0.0153
2722.00,0.0152
2721.00,0.0152
2720.00,0.0151
2719.00,0.0151
2718.00,0.0150
2717.00,0.0150
2716.00,0.0149
2715.00,0.0148
2714.00,0.0148
2713.00,0.0148
2712.00,0.0147
2711.00,0.0147
2710.00,0.0146
2709.00,0.0146
2708.00,0.0146
2707.00,0.0145
2706.00,0.0145
2705.00,0.0144
2704.00,0.0144
2703.00,0.0143
2702.00,0.0143
2701.00,0.0142
2700.00,0.0142
2699.00,0.0142
2698.00,0.0141
2697.00,0.0141
2696.00,0.0140
2695.00,0.0140
2694.00,0.0140
2693.00,0.0139
2692.00,0.0139
2691.00,0.0138
2690.00,0.0138
2689.00,0.0138
2688.00,0.0137
2687.00,0.0137
2686.00,0.0137
2685.00,0.0137
2684.00,0.0137
2683.00,0.0136
2682.00,0.0136
2681.00,0.0135
2680.00,0.0135
2679.00,0.0134
2678.00,0.0134
2677.00,0.0133
2676.00,0.0133
2675.00,0.0133
2674.00,0.0132
2673.00,0.0132
2672.00,0.0131
2671.00,0.0131
2670.00,0.0130
2669.00,0.0130
2668.00,0.0130
2667.00,0.0130
2666.00,0.0130
2665.00,0.0131
2664.00,0.0131
2663.00,0.0131
2662.00,0.0131
2661.00,0.0132
2660.00,0.0131
2659.00,0.0131
2658.00,0.0131
2657.00,0.0131
2656.00,0.0131
2655.00,0.0130
2654.00,0.0130
2653.00,0.0129
2652.00,0.0129
2651.00,0.0128
2650.00,0.0128
2649.00,0.0127
2648.00,0.0127
2647.00,0.0127
2646.00,0.0127
2645.00,0.0127
2644.00,0.0126
2643.00,0.0126
2642.00,0.0125
2641.00,0.0124
2640.00,0.0124
2639.00,0.0123
2638.00,0.0122
2637.00,0.0122
2636.00,0.0121
2635.00,0.0121
2634.00,0.0121
2633.00,0.0120
2632.00,0.0120
2631.00,0.0120
2630.00,0.0119
2629.00,0.0119
2628.00,0.0118
2627.00,0.0117
2626.00,0.0116
2625.00,0.0116
2624.00,0.0115
2623.00,0.0115
2622.00,0.0115
2621.00,0.0114
2620.00,0.0114
2619.00,0.0113
2618.00,0.0113
2617.00,0.0113
2616.00,0.0113
2615.00,0.0112
2614.00,0.0112
2613.00,0.0111
2612.00,0.0110
2611.00,0.0110
2610.00,0.0109
2609.00,0.0108
2608.00,0.0108
2607.00,0.0107
2606.00,0.0107
2605.00,0.0106
2604.00,0.0106
2603.00,0.0105
2602.00,0.0105
2601.00,0.0105
2600.00,0.0105
2599.00,0.0104
2598.00,0.0104
2597.00,0.0104
2596.00,0.0104
2595.00,0.0103
2594.00,0.0102
2593.00,0.0102
2592.00,0.0101
2591.00,0.0101
2590.00,0.0101
2589.00,0.0102
2588.00,0.0102
2587.00,0.0102
2586.00,0.0102
2585.00,0.0101
2584.00,0.0101
2583.00,0.0100
2582.00,0.0100
2581.00,0.0099
2580.00,0.0098
2579.00,0.0098
2578.00,0.0098
2577.00,0.0098
2576.00,0.0097
2575.00,0.0097
2574.00,0.0097
2573.00,0.0097
2572.00,0.0096
2571.00,0.0096
2570.00,0.0096
2569.00,0.0095
2568.00,0.0095
2567.00,0.0095
2566.00,0.0095
2565.00,0.0095
2564.00,0.0095
2563.00,0.0095
2562.00,0.0095
2561.00,0.0095
2560.00,0.0094
2559.00,0.0094
2558.00,0.0094
2557.00,0.0094
2556.00,0.0093
2555.00,0.0093
2554.00,0.0093
2553.00,0.0093
2552.00,0.0092
2551.00,0.0092
2550.00,0.0092
2549.00,0.0092
2548.00,0.0092
2547.00,0.0092
2546.00,0.0092
2545.00,0.0092
2544.00,0.0092
2543.00,0.0092
2542.00,0.0091
2541.00,0.0091
2540.00,0.0091
2539.00,0.0091
2538.00,0.0091
2537.00,0.0091
2536.00,0.0091
2535.00,0.0090
2534.00,0.0090
2533.00,0.0090
2532.00,0.0090
2531.00,0.0089
2530.00,0.0089
2529.00,0.0089
2528.00,0.0088
2527.00,0.0088
2526.00,0.0088
2525.00,0.0088
2524.00,0.0089
2523.00,0.0089
2522.00,0.0089
2521.00,0.0089
2520.00,0.0089
2519.00,0.0088
2518.00,0.0088
2517.00,0.0088
2516.00,0.0088
2515.00,0.0088
2514.00,0.0088
2513.00,0.0088
2512.00,0.0088
2511.00,0.0088
2510.00,0.0087
2509.00,0.0087
2508.00,0.0087
2507.00,0.0087
2506.00,0.0087
2505.00,0.0087
2504.00,0.0087
2503.00,0.0087
2502.00,0.0087
2501.00,0.0087
2500.00,0.0087
2499.00,0.0086
2498.00,0.0086
2497.00,0.0085
2496.00,0.0085
2495.00,0.0086
2494.00,0.0086
2493.00,0.0086
2492.00,0.0086
2491.00,0.0086
2490.00,0.0086
2489.00,0.0086
2488.00,0.0086
2487.00,0.0086
2486.00,0.0086
2485.00,0.0085
2484.00,0.0085
2483.00,0.0085
2482.00,0.0085
2481.00,0.0085
2480.00,0.0085
2479.00,0.0085
2478.00,0.0085
2477.00,0.0084
2476.00,0.0084
2475.00,0.0084
2474.00,0.0084
2473.00,0.0084
2472.00,0.0084
2471.00,0.0084
2470.00,0.0084
2469.00,0.0084
2468.00,0.0083
2467.00,0.0083
2466.00,0.0084
2465.00,0.0084
2464.00,0.0085
2463.00,0.0085
2462.00,0.0085
2461.00,0.0085
2460.00,0.0085
2459.00,0.0085
2458.00,0.0086
2457.00,0.0086
2456.00,0.0087
2455.00,0.0087
2454.00,0.0087
2453.00,0.0086
2452.00,0.0086
2451.00,0.0085
2450.00,0.0084
2449.00,0.0084
2448.00,0.0084
2447.00,0.0084
2446.00,0.0084
2445.00,0.0084
2444.00,0.0084
2443.00,0.0084
2442.00,0.0083
2441.00,0.0083
2440.00,0.0083
2439.00,0.0083
2438.00,0.0083
2437.00,0.0083
2436.00,0.0082
2435.00,0.0082
2434.00,0.0081
2433.00,0.0081
2432.00,0.0081
2431.00,0.0081
2430.00,0.0082
2429.00,0.0082
2428.00,0.0082
2427.00,0.0081
2426.00,0.0081
2425.00,0.0081
2424.00,0.0080
2423.00,0.0080
2422.00,0.0080
2421.00,0.0081
2420.00,0.0081
2419.00,0.0082
2418.00,0.0082
2417.00,0.0082
2416.00,0.0083
2415.00,0.0083
2414.00,0.0083
2413.00,0.0083
2412.00,0.0082
2411.00,0.0082
2410.00,0.0083
2409.00,0.0083
2408.00,0.0083
2407.00,0.0082
2406.00,0.0082
2405.00,0.0081
2404.00,0.0080
2403.00,0.0081
2402.00,0.0081
2401.00,0.0081
2400.00,0.0082
2399.00,0.0082
2398.00,0.0082
2397.00,0.0082
2396.00,0.0082
2395.00,0.0082
2394.00,0.0082
2393.00,0.0083
2392.00,0.0083
2391.00,0.0082
2390.00,0.0082
2389.00,0.0082
2388.00,0.0082
2387.00,0.0082
2386.00,0.0083
2385.00,0.0083
2384.00,0.0083
2383.00,0.0083
2382.00,0.0082
2381.00,0.0082
2380.00,0.0081
2379.00,0.0081
2378.00,0.0081
2377.00,0.0081
2376.00,0.0081
2375.00,0.0082
2374.00,0.0083
2373.00,0.0083
2372.00,0.0084
2371.00,0.0085
2370.00,0.0085
2369.00,0.0086
2368.00,0.0086
2367.00,0.0086
2366.00,0.0086
2365.00,0.0086
2364.00,0.0087
2363.00,0.0087
2362.00,0.0087
2361.00,0.0088
2360.00,0.0090
2359.00,0.0091
2358.00,0.0092
2357.00,0.0092
2356.00,0.0092
2355.00,0.0092
2354.00,0.0091
2353.00,0.0090
2352.00,0.0091
2351.00,0.0091
2350.00,0.0092
2349.00,0.0092
2348.00,0.0091
2347.00,0.0091
2346.00,0.0091
2345.00,0.0093
2344.00,0.0094
2343.00,0.0096
2342.00,0.0097
2341.00,0.0097
2340.00,0.0097
2339.00,0.0097
2338.00,0.0097
2337.00,0.0098
2336.00,0.0098
2335.00,0.0098
2334.00,0.0097
2333.00,0.0097
2332.00,0.0097
2331.00,0.0098
2330.00,0.0098
2329.00,0.0100
2328.00,0.0102
2327.00,0.0106
2326.00,0.0111
2325.00,0.0115
2324.00,0.0117
2323.00,0.0117
2322.00,0.0116
2321.00,0.0114
2320.00,0.0112
2319.00,0.0111
2318.00,0.0110
2317.00,0.0109
2316.00,0.0109
2315.00,0.0108
2314.00,0.0108
2313.00,0.0107
2312.00,0.0108
2311.00,0.0108
2310.00,0.0108
2309.00,0.0108
2308.00,0.0108
2307.00,0.0108
2306.00,0.0108
2305.00,0.0108
2304.00,0.0108
2303.00,0.0108
2302.00,0.0108
2301.00,0.0108
2300.00,0.0109
2299.00,0.0109
2298.00,0.0109
2297.00,0.0110
2296.00,0.0110
2295.00,0.0111
2294.00,0.0112
2293.00,0.0113
2292.00,0.0114
2291.00,0.0115
2290.00,0.0115
2289.00,0.0116
2288.00,0.0116
2287.00,0.0116
2286.00,0.0116
2285.00,0.0116
2284.00,0.0116
2283.00,0.0115
2282.00,0.0114
2281.00,0.0114
2280.00,0.0113
2279.00,0.0112
2278.00,0.0111
2277.00,0.0110
2276.00,0.0109
2275.00,0.0108
2274.00,0.0108
2273.00,0.0109
2272.00,0.0109
2271.00,0.0109
2270.00,0.0109
2269.00,0.0109
2268.00,0.0108
2267.00,0.0108
2266.00,0.0107
2265.00,0.0106
2264.00,0.0106
2263.00,0.0106
2262.00,0.0107
2261.00,0.0108
2260.00,0.0108
2259.00,0.0107
2258.00,0.0106
2257.00,0.0106
2256.00,0.0105
2255.00,0.0105
2254.00,0.0104
2253.00,0.0104
2252.00,0.0104
2251.00,0.0105
2250.00,0.0105
2249.00,0.0105
2248.00,0.0104
2247.00,0.0103
2246.00,0.0102
2245.00,0.0102
2244.00,0.0102
2243.00,0.0103
2242.00,0.0104
2241.00,0.0105
2240.00,0.0106
2239.00,0.0106
2238.00,0.0106
2237.00,0.0106
2236.00,0.0107
2235.00,0.0106
2234.00,0.0105
2233.00,0.0104
2232.00,0.0103
2231.00,0.0102
2230.00,0.0102
2229.00,0.0102
2228.00,0.0102
2227.00,0.0102
2226.00,0.0102
2225.00,0.0102
2224.00,0.0103
2223.00,0.0105
2222.00,0.0106
2221.00,0.0106
2220.00,0.0105
2219.00,0.0104
2218.00,0.0103
2217.00,0.0102
2216.00,0.0101
2215.00,0.0100
2214.00,0.0099
2213.00,0.0099
2212.00,0.0100
2211.00,0.0101
2210.00,0.0101
2209.00,0.0101
2208.00,0.0101
2207.00,0.0102
2206.00,0.0102
2205.00,0.0103
2204.00,0.0103
2203.00,0.0104
2202.00,0.0103
2201.00,0.0102
2200.00,0.0100
2199.00,0.0100
2198.00,0.0101
2197.00,0.0104
2196.00,0.0105
2195.00,0.0104
2194.00,0.0103
2193.00,0.0102
2192.00,0.0104
2191.00,0.0106
2190.00,0.0107
2189.00,0.0106
2188.00,0.0105
2187.00,0.0105
2186.00,0.0104
2185.00,0.0102
2184.00,0.0099
2183.00,0.0095
2182.00,0.0091
2181.00,0.0089
2180.00,0.0090
2179.00,0.0091
2178.00,0.0091
2177.00,0.0092
2176.00,0.0091
2175.00,0.0089
2174.00,0.0087
2173.00,0.0086
2172.00,0.0088
2171.00,0.0091
2170.00,0.0095
2169.00,0.0099
2168.00,0.0103
2167.00,0.0103
2166.00,0.0102
2165.00,0.0100
2164.00,0.0101
2163.00,0.0103
2162.00,0.0104
2161.00,0.0100
2160.00,0.0089
2159.00,0.0073
2158.00,0.0057
2157.00,0.0048
2156.00,0.0048
2155.00,0.0051
2154.00,0.0055
2153.00,0.0060
2152.00,0.0065
2151.00,0.0069
2150.00,0.0071
2149.00,0.0072
2148.00,0.0074
2147.00,0.0075
2146.00,0.0077
2145.00,0.0080
2144.00,0.0082
2143.00,0.0082
2142.00,0.0082
2141.00,0.0082
2140.00,0.0083
2139.00,0.0083
2138.00,0.0083
2137.00,0.0083
2136.00,0.0081
2135.00,0.0079
2134.00,0.0077
2133.00,0.0077
2132.00,0.0078
2131.00,0.0081
2130.00,0.0085
2129.00,0.0089
2128.00,0.0092
2127.00,0.0095
2126.00,0.0097
2125.00,0.0099
2124.00,0.0100
2123.00,0.0102
2122.00,0.0103
2121.00,0.0104
2120.00,0.0105
2119.00,0.0106
2118.00,0.0106
2117.00,0.0108
2116.00,0.0109
2115.00,0.0111
2114.00,0.0113
2113.00,0.0114
2112.00,0.0114
2111.00,0.0114
2110.00,0.0114
2109.00,0.0114
2108.00,0.0115
2107.00,0.0116
2106.00,0.0116
2105.00,0.0116
2104.00,0.0116
2103.00,0.0116
2102.00,0.0116
2101.00,0.0116
2100.00,0.0115
2099.00,0.0113
2098.00,0.0111
2097.00,0.0110
2096.00,0.0108
2095.00,0.0107
2094.00,0.0105
2093.00,0.0104
2092.00,0.0105
2091.00,0.0106
2090.00,0.0108
2089.00,0.0110
2088.00,0.0112
2087.00,0.0113
2086.00,0.0112
2085.00,0.0111
2084.00,0.0110
2083.00,0.0110
2082.00,0.0110
2081.00,0.0110
2080.00,0.0111
2079.00,0.0110
2078.00,0.0109
2077.00,0.0107
2076.00,0.0106
2075.00,0.0106
2074.00,0.0105
2073.00,0.0104
2072.00,0.0101
2071.00,0.0099
2070.00,0.0098
2069.00,0.0099
2068.00,0.0101
2067.00,0.0102
2066.00,0.0101
2065.00,0.0099
2064.00,0.0097
2063.00,0.0094
2062.00,0.0092
2061.00,0.0091
2060.00,0.0091
2059.00,0.0092
2058.00,0.0093
2057.00,0.0093
2056.00,0.0094
2055.00,0.0094
2054.00,0.0095
2053.00,0.0098
2052.00,0.0102
2051.00,0.0104
2050.00,0.0102
2049.00,0.0098
2048.00,0.0094
2047.00,0.0091
2046.00,0.0089
2045.00,0.0089
2044.00,0.0088
2043.00,0.0087
2042.00,0.0084
2041.00,0.0081
2040.00,0.0079
2039.00,0.0078
2038.00,0.0076
2037.00,0.0076
2036.00,0.0075
2035.00,0.0074
2034.00,0.0070
2033.00,0.0068
2032.00,0.0066
2031.00,0.0065
2030.00,0.0064
2029.00,0.0062
2028.00,0.0061
2027.00,0.0060
2026.00,0.0059
2025.00,0.0060
2024.00,0.0062
2023.00,0.0062
2022.00,0.0061
2021.00,0.0061
2020.00,0.0061
2019.00,0.0060
2018.00,0.0057
2017.00,0.0058
2016.00,0.0060
2015.00,0.0063
2014.00,0.0064
2013.00,0.0066
2012.00,0.0069
2011.00,0.0071
2010.00,0.0069
2009.00,0.0065
2008.00,0.0059
2007.00,0.0054
2006.00,0.0051
2005.00,0.0051
2004.00,0.0054
2003.00,0.0057
2002.00,0.0059
2001.00,0.0062
2000.00,0.0065
1999.00,0.0067
1998.00,0.0068
1997.00,0.0069
1996.00,0.0071
1995.00,0.0071
1994.00,0.0072
1993.00,0.0072
1992.00,0.0072
1991.00,0.0072
1990.00,0.0072
1989.00,0.0073
1988.00,0.0074
1987.00,0.0074
1986.00,0.0074
1985.00,0.0075
1984.00,0.0076
1983.00,0.0077
1982.00,0.0077
1981.00,0.0078
1980.00,0.0077
1979.00,0.0072
1978.00,0.0063
1977.00,0.0055
1976.00,0.0050
1975.00,0.0049
1974.00,0.0048
1973.00,0.0047
1972.00,0.0048
1971.00,0.0048
1970.00,0.0048
1969.00,0.0048
1968.00,0.0048
1967.00,0.0048
1966.00,0.0048
1965.00,0.0048
1964.00,0.0049
1963.00,0.0050
1962.00,0.0050
1961.00,0.0051
1960.00,0.0051
1959.00,0.0051
1958.00,0.0051
1957.00,0.0053
1956.00,0.0054
1955.00,0.0055
1954.00,0.0054
1953.00,0.0053
1952.00,0.0054
1951.00,0.0054
1950.00,0.0054
1949.00,0.0053
1948.00,0.0054
1947.00,0.0054
1946.00,0.0055
1945.00,0.0057
1944.00,0.0058
1943.00,0.0059
1942.00,0.0058
1941.00,0.0058
1940.00,0.0058
1939.00,0.0059
1938.00,0.0060
1937.00,0.0060
1936.00,0.0059
1935.00,0.0058
1934.00,0.0057
1933.00,0.0057
1932.00,0.0058
1931.00,0.0058
1930.00,0.0058
1929.00,0.0057
1928.00,0.0058
1927.00,0.0058
1926.00,0.0059
1925.00,0.0059
1924.00,0.0060
1923.00,0.0059
1922.00,0.0059
1921.00,0.0060
1920.00,0.0062
1919.00,0.0062
1918.00,0.0061
1917.00,0.0060
1916.00,0.0059
1915.00,0.0059
1914.00,0.0059
1913.00,0.0058
1912.00,0.0059
1911.00,0.0059
1910.00,0.0058
1909.00,0.0057
1908.00,0.0058
1907.00,0.0059
1906.00,0.0060
1905.00,0.0060
1904.00,0.0060
1903.00,0.0060
1902.00,0.0060
1901.00,0.0060
1900.00,0.0060
1899.00,0.0060
1898.00,0.0059
1897.00,0.0059
1896.00,0.0059
1895.00,0.0059
1894.00,0.0058
1893.00,0.0057
1892.00,0.0058
1891.00,0.0058
1890.00,0.0057
1889.00,0.0056
1888.00,0.0056
1887.00,0.0056
1886.00,0.0055
1885.00,0.0055
1884.00,0.0055
1883.00,0.0055
1882.00,0.0054
1881.00,0.0054
1880.00,0.0053
1879.00,0.0053
1878.00,0.0053
1877.00,0.0053
1876.00,0.0053
1875.00,0.0053
1874.00,0.0052
1873.00,0.0053
1872.00,0.0054
1871.00,0.0055
1870.00,0.0054
1869.00,0.0052
1868.00,0.0051
1867.00,0.0050
1866.00,0.0049
1865.00,0.0050
1864.00,0.0051
1863.00,0.0051
1862.00,0.0051
1861.00,0.0051
1860.00,0.0051
1859.00,0.0050
1858.00,0.0050
1857.00,0.0050
1856.00,0.0051
1855.00,0.0050
1854.00,0.0050
1853.00,0.0049
1852.00,0.0050
1851.00,0.0050
1850.00,0.0050
1849.00,0.0050
1848.00,0.0051
1847.00,0.0052
1846.00,0.0053
1845.00,0.0052
1844.00,0.0050
1843.00,0.0048
1842.00,0.0047
1841.00,0.0048
1840.00,0.0049
1839.00,0.0049
1838.00,0.0049
1837.00,0.0049
1836.00,0.0050
1835.00,0.0050
1834.00,0.0051
1833.00,0.0052
1832.00,0.0054
1831.00,0.0055
1830.00,0.0053
1829.00,0.0051
1828.00,0.0051
1827.00,0.0052
1826.00,0.0052
1825.00,0.0051
1824.00,0.0051
1823.00,0.0051
1822.00,0.0051
1821.00,0.0050
1820.00,0.0050
1819.00,0.0048
1818.00,0.0047
1817.00,0.0047
1816.00,0.0047
1815.00,0.0048
1814.00,0.0050
1813.00,0.0051
1812.00,0.0052
1811.00,0.0051
1810.00,0.0050
1809.00,0.0049
1808.00,0.0049
1807.00,0.0049
1806.00,0.0050
1805.00,0.0050
1804.00,0.0051
1803.00,0.0052
1802.00,0.0052
1801.00,0.0052
1800.00,0.0052
1799.00,0.0051
1798.00,0.0050
1797.00,0.0050
1796.00,0.0051
1795.00,0.0053
1794.00,0.0054
1793.00,0.0053
1792.00,0.0050
1791.00,0.0048
1790.00,0.0047
1789.00,0.0048
1788.00,0.0049
1787.00,0.0050
1786.00,0.0049
1785.00,0.0049
1784.00,0.0049
1783.00,0.0049
1782.00,0.0049
1781.00,0.0050
1780.00,0.0050
1779.00,0.0049
1778.00,0.0048
1777.00,0.0048
1776.00,0.0049
1775.00,0.0050
1774.00,0.0050
1773.00,0.0051
1772.00,0.0050
1771.00,0.0049
1770.00,0.0049
1769.00,0.0049
1768.00,0.0048
1767.00,0.0048
1766.00,0.0049
1765.00,0.0050
1764.00,0.0052
1763.00,0.0053
1762.00,0.0052
1761.00,0.0051
1760.00,0.0052
1759.00,0.0054
1758.00,0.0055
1757.00,0.0056
1756.00,0.0057
1755.00,0.0058
1754.00,0.0060
1753.00,0.0062
1752.00,0.0064
1751.00,0.0067
1750.00,0.0070
1749.00,0.0075
1748.00,0.0079
1747.00,0.0082
1746.00,0.0084
1745.00,0.0086
1744.00,0.0089
1743.00,0.0092
1742.00,0.0096
1741.00,0.0100
1740.00,0.0102
1739.00,0.0103
1738.00,0.0103
1737.00,0.0104
1736.00,0.0106
1735.00,0.0106
1734.00,0.0104
1733.00,0.0105
1732.00,0.0111
1731.00,0.0117
1730.00,0.0122
1729.00,0.0124
1728.00,0.0127
1727.00,0.0130
1726.00,0.0132
1725.00,0.0135
1724.00,0.0139
1723.00,0.0143
1722.00,0.0147
1721.00,0.0152
1720.00,0.0155
1719.00,0.0157
1718.00,0.0157
1717.00,0.0161
1716.00,0.0169
1715.00,0.0179
1714.00,0.0186
1713.00,0.0192
1712.00,0.0197
1711.00,0.0203
1710.00,0.0209
1709.00,0.0216
1708.00,0.0225
1707.00,0.0234
1706.00,0.0243
1705.00,0.0252
1704.00,0.0262
1703.00,0.0272
1702.00,0.0282
1701.00,0.0296
1700.00,0.0312
1699.00,0.0326
1698.00,0.0337
1697.00,0.0351
1696.00,0.0370
1695.00,0.0394
1694.00,0.0416
1693.00,0.0435
1692.00,0.0453
1691.00,0.0471
1690.00,0.0491
1689.00,0.0511
1688.00,0.0529
1687.00,0.0544
1686.00,0.0559
1685.00,0.0584
1684.00,0.0621
1683.00,0.0658
1682.00,0.0684
1681.00,0.0704
1680.00,0.0723
1679.00,0.0742
1678.00,0.0760
1677.00,0.0780
1676.00,0.0804
1675.00,0.0833
1674.00,0.0860
1673.00,0.0882
1672.00,0.0902
1671.00,0.0923
1670.00,0.0949
1669.00,0.0981
1668.00,0.1012
1667.00,0.1036
1666.00,0.1054
1665.00,0.1072
1664.00,0.1094
1663.00,0.1123
1662.00,0.1155
1661.00,0.1184
1660.00,0.1209
1659.00,0.1230
1658.00,0.1247
1657.00,0.1259
1656.00,0.1265
1655.00,0.1269
1654.00,0.1285
1653.00,0.1329
1652.00,0.1379
1651.00,0.1407
1650.00,0.1417
1649.00,0.1416
1648.00,0.1417
1647.00,0.1429
1646.00,0.1450
1645.00,0.1466
1644.00,0.1476
1643.00,0.1479
1642.00,0.1478
1641.00,0.1476
1640.00,0.1476
1639.00,0.1473
1638.00,0.1468
1637.00,0.1463
1636.00,0.1467
1635.00,0.1478
1634.00,0.1483
1633.00,0.1477
1632.00,0.1463
1631.00,0.1447
1630.00,0.1429
1629.00,0.1411
1628.00,0.1395
1627.00,0.1380
1626.00,0.1362
1625.00,0.1342
1624.00,0.1319
1623.00,0.1298
1622.00,0.1277
1621.00,0.1255
1620.00,0.1230
1619.00,0.1199
1618.00,0.1167
1617.00,0.1136
1616.00,0.1111
1615.00,0.1091
1614.00,0.1070
1613.00,0.1044
1612.00,0.1014
1611.00,0.0985
1610.00,0.0958
1609.00,0.0931
1608.00,0.0906
1607.00,0.0881
1606.00,0.0858
1605.00,0.0835
1604.00,0.0811
1603.00,0.0788
1602.00,0.0767
1601.00,0.0746
1600.00,0.0726
1599.00,0.0707
1598.00,0.0689
1597.00,0.0671
1596.00,0.0653
1595.00,0.0636
1594.00,0.0621
1593.00,0.0605
1592.00,0.0590
1591.00,0.0576
1590.00,0.0563
1589.00,0.0551
1588.00,0.0540
1587.00,0.0529
1586.00,0.0520
1585.00,0.0510
1584.00,0.0501
1583.00,0.0494
1582.00,0.0487
1581.00,0.0481
1580.00,0.0474
1579.00,0.0466
1578.00,0.0458
1577.00,0.0451
1576.00,0.0449
1575.00,0.0452
1574.00,0.0456
1573.00,0.0458
1572.00,0.0457
1571.00,0.0455
1570.00,0.0455
1569.00,0.0457
1568.00,0.0459
1567.00,0.0461
1566.00,0.0464
1565.00,0.0466
1564.00,0.0467
1563.00,0.0468
1562.00,0.0466
1561.00,0.0466
1560.00,0.0470
1559.00,0.0485
1558.00,0.0506
1557.00,0.0518
1556.00,0.0522
1555.00,0.0524
1554.00,0.0527
1553.00,0.0532
1552.00,0.0536
1551.00,0.0539
1550.00,0.0541
1549.00,0.0543
1548.00,0.0544
1547.00,0.0543
1546.00,0.0540
1545.00,0.0536
1544.00,0.0533
1543.00,0.0530
1542.00,0.0525
1541.00,0.0517
1540.00,0.0510
1539.00,0.0504
1538.00,0.0500
1537.00,0.0497
1536.00,0.0492
1535.00,0.0483
1534.00,0.0472
1533.00,0.0462
1532.00,0.0452
1531.00,0.0444
1530.00,0.0435
1529.00,0.0425
1528.00,0.0414
1527.00,0.0403
1526.00,0.0393
1525.00,0.0384
1524.00,0.0375
1523.00,0.0364
1522.00,0.0353
1521.00,0.0345
1520.00,0.0341
1519.00,0.0338
1518.00,0.0332
1517.00,0.0323
1516.00,0.0311
1515.00,0.0300
1514.00,0.0288
1513.00,0.0276
1512.00,0.0263
1511.00,0.0251
1510.00,0.0239
1509.00,0.0226
1508.00,0.0211
1507.00,0.0198
1506.00,0.0188
1505.00,0.0179
1504.00,0.0172
1503.00,0.0166
1502.00,0.0160
1501.00,0.0153
1500.00,0.0145
1499.00,0.0137
1498.00,0.0128
1497.00,0.0119
1496.00,0.0112
1495.00,0.0108
1494.00,0.0106
1493.00,0.0104
1492.00,0.0101
1491.00,0.0097
1490.00,0.0093
1489.00,0.0091
1488.00,0.0090
1487.00,0.0089
1486.00,0.0087
1485.00,0.0087
1484.00,0.0087
1483.00,0.0088
1482.00,0.0090
1481.00,0.0094
1480.00,0.0098
1479.00,0.0102
1478.00,0.0107
1477.00,0.0112
1476.00,0.0116
1475.00,0.0122
1474.00,0.0128
1473.00,0.0137
1472.00,0.0147
1471.00,0.0155
1470.00,0.0161
1469.00,0.0165
1468.00,0.0168
1467.00,0.0171
1466.00,0.0174
1465.00,0.0178
1464.00,0.0182
1463.00,0.0186
1462.00,0.0189
1461.00,0.0192
1460.00,0.0194
1459.00,0.0194
1458.00,0.0196
1457.00,0.0201
1456.00,0.0209
1455.00,0.0215
1454.00,0.0218
1453.00,0.0219
1452.00,0.0218
1451.00,0.0217
1450.00,0.0216
1449.00,0.0216
1448.00,0.0216
1447.00,0.0217
1446.00,0.0217
1445.00,0.0217
1444.00,0.0217
1443.00,0.0217
1442.00,0.0217
1441.00,0.0217
1440.00,0.0218
1439.00,0.0217
1438.00,0.0218
1437.00,0.0219
1436.00,0.0223
1435.00,0.0226
1434.00,0.0229
1433.00,0.0231
1432.00,0.0233
1431.00,0.0235
1430.00,0.0238
1429.00,0.0241
1428.00,0.0244
1427.00,0.0246
1426.00,0.0248
1425.00,0.0250
1424.00,0.0253
1423.00,0.0256
1422.00,0.0257
1421.00,0.0258
1420.00,0.0258
1419.00,0.0261
1418.00,0.0266
1417.00,0.0270
1416.00,0.0271
1415.00,0.0270
1414.00,0.0268
1413.00,0.0266
1412.00,0.0263
1411.00,0.0262
1410.00,0.0260
1409.00,0.0258
1408.00,0.0256
1407.00,0.0253
1406.00,0.0249
1405.00,0.0245
1404.00,0.0241
1403.00,0.0237
1402.00,0.0232
1401.00,0.0227
1400.00,0.0221
1399.00,0.0215
1398.00,0.0210
1397.00,0.0205
1396.00,0.0200
1395.00,0.0196
1394.00,0.0193
1393.00,0.0191
1392.00,0.0189
1391.00,0.0187
1390.00,0.0185
1389.00,0.0184
1388.00,0.0186
1387.00,0.0190
1386.00,0.0195
1385.00,0.0200
1384.00,0.0205
1383.00,0.0208
1382.00,0.0210
1381.00,0.0212
1380.00,0.0214
1379.00,0.0215
1378.00,0.0216
1377.00,0.0216
1376.00,0.0215
1375.00,0.0212
1374.00,0.0210
1373.00,0.0207
1372.00,0.0204
1371.00,0.0199
1370.00,0.0194
1369.00,0.0189
1368.00,0.0184
1367.00,0.0179
1366.00,0.0174
1365.00,0.0168
1364.00,0.0163
1363.00,0.0159
1362.00,0.0156
1361.00,0.0155
1360.00,0.0154
1359.00,0.0152
1358.00,0.0150
1357.00,0.0148
1356.00,0.0146
1355.00,0.0143
1354.00,0.0141
1353.00,0.0139
1352.00,0.0135
1351.00,0.0131
1350.00,0.0127
1349.00,0.0122
1348.00,0.0117
1347.00,0.0112
1346.00,0.0107
1345.00,0.0102
1344.00,0.0098
1343.00,0.0093
1342.00,0.0088
1341.00,0.0083
1340.00,0.0078
1339.00,0.0075
1338.00,0.0073
1337.00,0.0071
1336.00,0.0068
1335.00,0.0065
1334.00,0.0062
1333.00,0.0058
1332.00,0.0055
1331.00,0.0053
1330.00,0.0051
1329.00,0.0051
1328.00,0.0051
1327.00,0.0051
1326.00,0.0051
1325.00,0.0051
1324.00,0.0051
1323.00,0.0051
1322.00,0.0051
1321.00,0.0051
1320.00,0.0051
1319.00,0.0051
1318.00,0.0052
1317.00,0.0052
1316.00,0.0053
1315.00,0.0052
1314.00,0.0052
1313.00,0.0052
1312.00,0.0052
1311.00,0.0053
1310.00,0.0053
1309.00,0.0054
1308.00,0.0055
1307.00,0.0057
1306.00,0.0059
1305.00,0.0062
1304.00,0.0065
1303.00,0.0070
1302.00,0.0074
1301.00,0.0080
1300.00,0.0086
1299.00,0.0093
1298.00,0.0101
1297.00,0.0110
1296.00,0.0121
1295.00,0.0132
1294.00,0.0145
1293.00,0.0158
1292.00,0.0172
1291.00,0.0187
1290.00,0.0202
1289.00,0.0219
1288.00,0.0238
1287.00,0.0258
1286.00,0.0280
1285.00,0.0302
1284.00,0.0326
1283.00,0.0350
1282.00,0.0374
1281.00,0.0400
1280.00,0.0426
1279.00,0.0453
1278.00,0.0481
1277.00,0.0510
1276.00,0.0539
1275.00,0.0568
1274.00,0.0597
1273.00,0.0627
1272.00,0.0657
1271.00,0.0688
1270.00,0.0718
1269.00,0.0747
1268.00,0.0776
1267.00,0.0803
1266.00,0.0829
1265.00,0.0854
1264.00,0.0878
1263.00,0.0901
1262.00,0.0923
1261.00,0.0944
1260.00,0.0964
1259.00,0.0982
1258.00,0.0999
1257.00,0.1014
1256.00,0.1029
1255.00,0.1042
1254.00,0.1054
1253.00,0.1065
1252.00,0.1076
1251.00,0.1087
1250.00,0.1096
1249.00,0.1105
1248.00,0.1113
1247.00,0.1120
1246.00,0.1126
1245.00,0.1134
1244.00,0.1142
1243.00,0.1150
1242.00,0.1159
1241.00,0.1168
1240.00,0.1178
1239.00,0.1188
1238.00,0.1199
1237.00,0.1210
1236.00,0.1223
1235.00,0.1236
1234.00,0.1249
1233.00,0.1263
1232.00,0.1276
1231.00,0.1289
1230.00,0.1301
1229.00,0.1313
1228.00,0.1325
1227.00,0.1336
1226.00,0.1345
1225.00,0.1353
1224.00,0.1360
1223.00,0.1365
1222.00,0.1369
1221.00,0.1373
1220.00,0.1374
1219.00,0.1373
1218.00,0.1370
1217.00,0.1365
1216.00,0.1357
1215.00,0.1347
1214.00,0.1334
1213.00,0.1319
1212.00,0.1302
1211.00,0.1283
1210.00,0.1263
1209.00,0.1241
1208.00,0.1219
1207.00,0.1197
1206.00,0.1174
1205.00,0.1152
1204.00,0.1131
1203.00,0.1110
1202.00,0.1092
1201.00,0.1075
1200.00,0.1062
1199.00,0.1050
1198.00,0.1041
1197.00,0.1034
1196.00,0.1029
1195.00,0.1023
1194.00,0.1015
1193.00,0.1004
1192.00,0.0989
1191.00,0.0968
1190.00,0.0942
1189.00,0.0911
1188.00,0.0878
1187.00,0.0843
1186.00,0.0808
1185.00,0.0777
1184.00,0.0749
1183.00,0.0726
1182.00,0.0707
1181.00,0.0693
1180.00,0.0683
1179.00,0.0677
1178.00,0.0674
1177.00,0.0674
1176.00,0.0678
1175.00,0.0685
1174.00,0.0695
1173.00,0.0708
1172.00,0.0725
1171.00,0.0744
1170.00,0.0767
1169.00,0.0793
1168.00,0.0822
1167.00,0.0853
1166.00,0.0886
1165.00,0.0921
1164.00,0.0956
1163.00,0.0992
1162.00,0.1025
1161.00,0.1058
1160.00,0.1088
1159.00,0.1115
1158.00,0.1139
1157.00,0.1160
1156.00,0.1177
1155.00,0.1191
1154.00,0.1202
1153.00,0.1209
1152.00,0.1214
1151.00,0.1214
1150.00,0.1210
1149.00,0.1204
1148.00,0.1195
1147.00,0.1184
1146.00,0.1171
1145.00,0.1158
1144.00,0.1145
1143.00,0.1132
1142.00,0.1120
1141.00,0.1110
1140.00,0.1103
1139.00,0.1097
1138.00,0.1093
1137.00,0.1090
1136.00,0.1089
1135.00,0.1090
1134.00,0.1093
1133.00,0.1100
1132.00,0.1112
1131.00,0.1128
1130.00,0.1150
1129.00,0.1176
1128.00,0.1205
1127.00,0.1232
1126.00,0.1252
1125.00,0.1263
1124.00,0.1262
1123.00,0.1250
1122.00,0.1229
1121.00,0.1204
1120.00,0.1177
1119.00,0.1151
1118.00,0.1128
1117.00,0.1108
1116.00,0.1091
1115.00,0.1077
1114.00,0.1067
1113.00,0.1061
1112.00,0.1058
1111.00,0.1058
1110.00,0.1061
1109.00,0.1067
1108.00,0.1078
1107.00,0.1093
1106.00,0.1112
1105.00,0.1133
1104.00,0.1159
1103.00,0.1187
1102.00,0.1216
1101.00,0.1248
1100.00,0.1279
1099.00,0.1311
1098.00,0.1341
1097.00,0.1370
1096.00,0.1398
1095.00,0.1422
1094.00,0.1442
1093.00,0.1461
1092.00,0.1479
1091.00,0.1497
1090.00,0.1515
1089.00,0.1535
1088.00,0.1557
1087.00,0.1582
1086.00,0.1609
1085.00,0.1639
1084.00,0.1672
1083.00,0.1707
1082.00,0.1743
1081.00,0.1781
1080.00,0.1821
1079.00,0.1862
1078.00,0.1903
1077.00,0.1944
1076.00,0.1986
1075.00,0.2025
1074.00,0.2060
1073.00,0.2094
1072.00,0.2124
1071.00,0.2150
1070.00,0.2171
1069.00,0.2188
1068.00,0.2199
1067.00,0.2203
1066.00,0.2200
1065.00,0.2190
1064.00,0.2174
1063.00,0.2153
1062.00,0.2127
1061.00,0.2100
1060.00,0.2074
1059.00,0.2049
1058.00,0.2029
1057.00,0.2014
1056.00,0.2006
1055.00,0.2002
1054.00,0.2004
1053.00,0.2012
1052.00,0.2026
1051.00,0.2045
1050.00,0.2069
1049.00,0.2097
1048.00,0.2129
1047.00,0.2165
1046.00,0.2202
1045.00,0.2241
1044.00,0.2279
1043.00,0.2313
1042.00,0.2340
1041.00,0.2362
1040.00,0.2378
1039.00,0.2388
1038.00,0.2391
1037.00,0.2391
1036.00,0.2388
1035.00,0.2385
1034.00,0.2381
1033.00,0.2379
1032.00,0.2379
1031.00,0.2380
1030.00,0.2378
1029.00,0.2372
1028.00,0.2360
1027.00,0.2339
1026.00,0.2308
1025.00,0.2270
1024.00,0.2223
1023.00,0.2167
1022.00,0.2106
1021.00,0.2042
1020.00,0.1977
1019.00,0.1913
1018.00,0.1849
1017.00,0.1789
1016.00,0.1733
1015.00,0.1682
1014.00,0.1634
1013.00,0.1592
1012.00,0.1555
1011.00,0.1523
1010.00,0.1495
1009.00,0.1472
1008.00,0.1451
1007.00,0.1431
1006.00,0.1411
1005.00,0.1390
1004.00,0.1364
1003.00,0.1332
1002.00,0.1291
1001.00,0.1241
1000.00,0.1186
999.00,0.1128
998.00,0.1070
997.00,0.1016
996.00,0.0969
995.00,0.0927
994.00,0.0890
993.00,0.0859
992.00,0.0832
991.00,0.0807
990.00,0.0784
989.00,0.0761
988.00,0.0738
987.00,0.0713
986.00,0.0688
985.00,0.0663
984.00,0.0642
983.00,0.0623
982.00,0.0608
981.00,0.0595
980.00,0.0586
979.00,0.0577
978.00,0.0571
977.00,0.0566
976.00,0.0562
975.00,0.0557
974.00,0.0552
973.00,0.0546
972.00,0.0540
971.00,0.0531
970.00,0.0518
969.00,0.0498
968.00,0.0470
967.00,0.0436
966.00,0.0397
965.00,0.0353
964.00,0.0308
963.00,0.0263
962.00,0.0220
961.00,0.0181
960.00,0.0147
959.00,0.0118
958.00,0.0093
957.00,0.0074
956.00,0.0060
955.00,0.0050
954.00,0.0044
953.00,0.0041
952.00,0.0040
951.00,0.0043
950.00,0.0048
949.00,0.0056
948.00,0.0067
947.00,0.0081
946.00,0.0099
945.00,0.0122
944.00,0.0148
943.00,0.0180
942.00,0.0216
941.00,0.0258
940.00,0.0306
939.00,0.0358
938.00,0.0414
937.00,0.0472
936.00,0.0531
935.00,0.0586
934.00,0.0637
933.00,0.0682
932.00,0.0720
931.00,0.0751
930.00,0.0774
929.00,0.0791
928.00,0.0800
927.00,0.0803
926.00,0.0800
925.00,0.0791
924.00,0.0778
923.00,0.0761
922.00,0.0742
921.00,0.0721
920.00,0.0698
919.00,0.0673
918.00,0.0645
917.00,0.0616
916.00,0.0586
915.00,0.0555
914.00,0.0522
913.00,0.0490
912.00,0.0458
911.00,0.0428
910.00,0.0399
909.00,0.0373
908.00,0.0350
907.00,0.0330
906.00,0.0313
905.00,0.0300
904.00,0.0290
903.00,0.0282
902.00,0.0275
901.00,0.0269
900.00,0.0265
899.00,0.0260
898.00,0.0256
897.00,0.0253
896.00,0.0250
895.00,0.0248
894.00,0.0247
893.00,0.0247
892.00,0.0247
891.00,0.0246
890.00,0.0244
889.00,0.0239
888.00,0.0231
887.00,0.0218
886.00,0.0201
885.00,0.0182
884.00,0.0159
883.00,0.0133
882.00,0.0107
881.00,0.0082
880.00,0.0062
879.00,0.0048
878.00,0.0040
877.00,0.0037
876.00,0.0040
875.00,0.0045
874.00,0.0051
873.00,0.0055
872.00,0.0057
871.00,0.0057
870.00,0.0056
869.00,0.0055
868.00,0.0053
867.00,0.0054
866.00,0.0056
865.00,0.0062
864.00,0.0071
863.00,0.0084
862.00,0.0101
861.00,0.0122
860.00,0.0146
859.00,0.0172
858.00,0.0201
857.00,0.0231
856.00,0.0265
855.00,0.0300
854.00,0.0335
853.00,0.0372
852.00,0.0408
851.00,0.0441
850.00,0.0472
849.00,0.0497
848.00,0.0517
847.00,0.0529
846.00,0.0533
845.00,0.0529
844.00,0.0517
843.00,0.0497
842.00,0.0473
841.00,0.0444
840.00,0.0412
839.00,0.0379
838.00,0.0345
837.00,0.0313
836.00,0.0283
835.00,0.0254
834.00,0.0227
833.00,0.0203
832.00,0.0182
831.00,0.0162
830.00,0.0144
829.00,0.0127
828.00,0.0114
827.00,0.0102
826.00,0.0091
825.00,0.0081
824.00,0.0072
823.00,0.0064
822.00,0.0059
821.00,0.0055
820.00,0.0052
819.00,0.0050
818.00,0.0048
817.00,0.0048
816.00,0.0049
815.00,0.0052
814.00,0.0056
813.00,0.0061
812.00,0.0067
811.00,0.0074
810.00,0.0082
809.00,0.0090
808.00,0.0098
807.00,0.0105
806.00,0.0111
805.00,0.0116
804.00,0.0119
803.00,0.0121
802.00,0.0122
801.00,0.0121
800.00,0.0119
799.00,0.0115
798.00,0.0110
797.00,0.0104
796.00,0.0097
795.00,0.0090
794.00,0.0082
793.00,0.0075
792.00,0.0069
791.00,0.0063
790.00,0.0058
789.00,0.0053
788.00,0.0049
787.00,0.0047
786.00,0.0045
785.00,0.0046
784.00,0.0047
783.00,0.0049
782.00,0.0052
781.00,0.0056
780.00,0.0062
779.00,0.0070
778.00,0.0078
777.00,0.0087
776.00,0.0095
775.00,0.0102
774.00,0.0107
773.00,0.0111
772.00,0.0113
771.00,0.0110
770.00,0.0105
769.00,0.0097
768.00,0.0089
767.00,0.0081
766.00,0.0073
765.00,0.0067
764.00,0.0062
763.00,0.0058
762.00,0.0054
761.00,0.0051
760.00,0.0050
759.00,0.0050
758.00,0.0052
757.00,0.0056
756.00,0.0062
755.00,0.0070
754.00,0.0080
753.00,0.0092
752.00,0.0107
751.00,0.0126
750.00,0.0146
749.00,0.0168
748.00,0.0189
747.00,0.0208
746.00,0.0225
745.00,0.0241
744.00,0.0256
743.00,0.0270
742.00,0.0283
741.00,0.0293
740.00,0.0303
739.00,0.0310
738.00,0.0315
737.00,0.0318
736.00,0.0319
735.00,0.0317
734.00,0.0314
733.00,0.0313
732.00,0.0312
731.00,0.0311
730.00,0.0309
729.00,0.0309
728.00,0.0310
727.00,0.0313
726.00,0.0315
725.00,0.0316
724.00,0.0315
723.00,0.0311
722.00,0.0305
721.00,0.0299
720.00,0.0294
719.00,0.0289
718.00,0.0284
717.00,0.0281
716.00,0.0280
715.00,0.0280
714.00,0.0283
713.00,0.0288
712.00,0.0297
711.00,0.0307
710.00,0.0320
709.00,0.0335
708.00,0.0352
707.00,0.0368
706.00,0.0384
705.00,0.0398
704.00,0.0412
703.00,0.0423
702.00,0.0429
701.00,0.0431
700.00,0.0429
699.00,0.0422
698.00,0.0412
697.00,0.0401
696.00,0.0387
695.00,0.0372
694.00,0.0354
693.00,0.0334
692.00,0.0312
691.00,0.0291
690.00,0.0269
689.00,0.0250
688.00,0.0231
687.00,0.0214
686.00,0.0198
685.00,0.0184
684.00,0.0172
683.00,0.0161
682.00,0.0151
681.00,0.0141
680.00,0.0135
679.00,0.0132
678.00,0.0132
677.00,0.0135
676.00,0.0139
675.00,0.0142
674.00,0.0144
673.00,0.0146
672.00,0.0146
671.00,0.0141
670.00,0.0134
669.00,0.0138
668.00,0.0159
667.00,0.0182
666.00,0.0187
665.00,0.0181
664.00,0.0176
663.00,0.0178
662.00,0.0188
661.00,0.0204
660.00,0.0225
659.00,0.0249
658.00,0.0269
657.00,0.0277
656.00,0.0272
655.00,0.0255
654.00,0.0232
653.00,0.0209
652.00,0.0190
651.00,0.0173
650.00,0.0158
649.00,0.0148
648.00,0.0145
647.00,0.0150
646.00,0.0160
645.00,0.0171
644.00,0.0177
643.00,0.0174
642.00,0.0163
641.00,0.0148
640.00,0.0134
639.00,0.0121
638.00,0.0110
637.00,0.0102
636.00,0.0098
635.00,0.0098
634.00,0.0100
633.00,0.0106
632.00,0.0114
631.00,0.0123
630.00,0.0131
629.00,0.0139
628.00,0.0149
627.00,0.0161
626.00,0.0177
625.00,0.0196
624.00,0.0218
623.00,0.0237
622.00,0.0255
621.00,0.0274
620.00,0.0299
619.00,0.0326
618.00,0.0354
617.00,0.0382
616.00,0.0408
615.00,0.0433
614.00,0.0454
613.00,0.0474
612.00,0.0495
611.00,0.0517
610.00,0.0538
609.00,0.0561
608.00,0.0588
607.00,0.0614
606.00,0.0636
605.00,0.0657
604.00,0.0675
603.00,0.0689
602.00,0.0698
601.00,0.0705
600.00,0.0715
599.00,0.0724
598.00,0.0729
597.00,0.0731
596.00,0.0732
595.00,0.0728
594.00,0.0720
593.00,0.0713
592.00,0.0707
591.00,0.0702
590.00,0.0696
589.00,0.0691
588.00,0.0690
587.00,0.0692
586.00,0.0694
585.00,0.0698
584.00,0.0706
583.00,0.0714
582.00,0.0722
581.00,0.0732
580.00,0.0744
579.00,0.0754
578.00,0.0757
577.00,0.0755
576.00,0.0753
575.00,0.0747
574.00,0.0735
573.00,0.0720
572.00,0.0706
571.00,0.0695
570.00,0.0683
569.00,0.0669
568.00,0.0655
567.00,0.0640
566.00,0.0625
565.00,0.0611
564.00,0.0599
563.00,0.0584
562.00,0.0567
561.00,0.0550
560.00,0.0537
559.00,0.0525
558.00,0.0512
557.00,0.0501
556.00,0.0495
555.00,0.0494
554.00,0.0491
553.00,0.0486
552.00,0.0478
551.00,0.0469
550.00,0.0460
549.00,0.0453
548.00,0.0452
547.00,0.0452
546.00,0.0452
545.00,0.0456
544.00,0.0463
543.00,0.0466
542.00,0.0463
541.00,0.0457
540.00,0.0453
539.00,0.0450
538.00,0.0445
537.00,0.0439
536.00,0.0434
535.00,0.0426
534.00,0.0416
533.00,0.0407
532.00,0.0403
531.00,0.0400
530.00,0.0394
529.00,0.0385
528.00,0.0378
527.00,0.0375
526.00,0.0376
525.00,0.0382
524.00,0.0389
523.00,0.0390
522.00,0.0383
521.00,0.0378
520.00,0.0376
519.00,0.0376
518.00,0.0373
517.00,0.0369
516.00,0.0366
515.00,0.0358
514.00,0.0343
513.00,0.0328
512.00,0.0319
511.00,0.0313
510.00,0.0305
509.00,0.0295
508.00,0.0286
507.00,0.0276
506.00,0.0262
505.00,0.0247
504.00,0.0232
503.00,0.0218
502.00,0.0203
501.00,0.0193
500.00,0.0190
499.00,0.0191
498.00,0.0187
497.00,0.0181
496.00,0.0174
495.00,0.0167
494.00,0.0161
493.00,0.0164
492.00,0.0175
491.00,0.0183
490.00,0.0177
489.00,0.0165
488.00,0.0154
487.00,0.0147
486.00,0.0141
485.00,0.0139
484.00,0.0142
483.00,0.0147
482.00,0.0149
481.00,0.0150
480.00,0.0151
479.00,0.0146
478.00,0.0137
477.00,0.0130
476.00,0.0129
475.00,0.0126
474.00,0.0116
473.00,0.0109
472.00,0.0113
471.00,0.0115
470.00,0.0105
469.00,0.0093
468.00,0.0094
467.00,0.0103
466.00,0.0108
465.00,0.0109
464.00,0.0113
463.00,0.0116
462.00,0.0110
461.00,0.0100
460.00,0.0094
459.00,0.0093
458.00,0.0087
457.00,0.0077
456.00,0.0069
455.00,0.0053
454.00,0.0033
453.00,0.0020
452.00,0.0025
451.00,0.0037
450.00,0.0044
