Created as New Dataset,Sample 004 By Administrator Date Monday, June 09 2025
cm-1,A
4000.00,0.0072
3999.00,0.0072
3998.00,0.0072
3997.00,0.0072
3996.00,0.0072
3995.00,0.0072
3994.00,0.0072
3993.00,0.0071
3992.00,0.0071
3991.00,0.0071
3990.00,0.0071
3989.00,0.0072
3988.00,0.0072
3987.00,0.0072
3986.00,0.0072
3985.00,0.0072
3984.00,0.0072
3983.00,0.0071
3982.00,0.0071
3981.00,0.0072
3980.00,0.0072
3979.00,0.0073
3978.00,0.0073
3977.00,0.0073
3976.00,0.0073
3975.00,0.0073
3974.00,0.0073
3973.00,0.0072
3972.00,0.0072
3971.00,0.0072
3970.00,0.0071
3969.00,0.0071
3968.00,0.0071
3967.00,0.0072
3966.00,0.0072
3965.00,0.0072
3964.00,0.0072
3963.00,0.0072
3962.00,0.0072
3961.00,0.0072
3960.00,0.0072
3959.00,0.0073
3958.00,0.0073
3957.00,0.0073
3956.00,0.0073
3955.00,0.0073
3954.00,0.0074
3953.00,0.0074
3952.00,0.0074
3951.00,0.0074
3950.00,0.0074
3949.00,0.0074
3948.00,0.0074
3947.00,0.0074
3946.00,0.0075
3945.00,0.0075
3944.00,0.0075
3943.00,0.0074
3942.00,0.0073
3941.00,0.0072
3940.00,0.0072
3939.00,0.0072
3938.00,0.0073
3937.00,0.0073
3936.00,0.0074
3935.00,0.0074
3934.00,0.0075
3933.00,0.0076
3932.00,0.0075
3931.00,0.0075
3930.00,0.0074
3929.00,0.0074
3928.00,0.0074
3927.00,0.0074
3926.00,0.0074
3925.00,0.0074
3924.00,0.0073
3923.00,0.0073
3922.00,0.0074
3921.00,0.0075
3920.00,0.0076
3919.00,0.0076
3918.00,0.0076
3917.00,0.0076
3916.00,0.0075
3915.00,0.0074
3914.00,0.0074
3913.00,0.0073
3912.00,0.0073
3911.00,0.0072
3910.00,0.0072
3909.00,0.0072
3908.00,0.0073
3907.00,0.0074
3906.00,0.0075
3905.00,0.0076
3904.00,0.0078
3903.00,0.0080
3902.00,0.0081
3901.00,0.0082
3900.00,0.0081
3899.00,0.0080
3898.00,0.0078
3897.00,0.0077
3896.00,0.0076
3895.00,0.0076
3894.00,0.0076
3893.00,0.0075
3892.00,0.0075
3891.00,0.0074
3890.00,0.0074
3889.00,0.0075
3888.00,0.0077
3887.00,0.0078
3886.00,0.0078
3885.00,0.0077
3884.00,0.0077
3883.00,0.0078
3882.00,0.0078
3881.00,0.0078
3880.00,0.0077
3879.00,0.0076
3878.00,0.0077
3877.00,0.0077
3876.00,0.0078
3875.00,0.0078
3874.00,0.0077
3873.00,0.0077
3872.00,0.0078
3871.00,0.0079
3870.00,0.0080
3869.00,0.0079
3868.00,0.0079
3867.00,0.0080
3866.00,0.0081
3865.00,0.0081
3864.00,0.0080
3863.00,0.0079
3862.00,0.0078
3861.00,0.0078
3860.00,0.0078
3859.00,0.0077
3858.00,0.0076
3857.00,0.0075
3856.00,0.0075
3855.00,0.0076
3854.00,0.0078
3853.00,0.0079
3852.00,0.0080
3851.00,0.0080
3850.00,0.0080
3849.00,0.0080
3848.00,0.0079
3847.00,0.0078
3846.00,0.0077
3845.00,0.0077
3844.00,0.0077
3843.00,0.0078
3842.00,0.0079
3841.00,0.0080
3840.00,0.0081
3839.00,0.0081
3838.00,0.0081
3837.00,0.0081
3836.00,0.0081
3835.00,0.0081
3834.00,0.0081
3833.00,0.0080
3832.00,0.0080
3831.00,0.0079
3830.00,0.0078
3829.00,0.0078
3828.00,0.0077
3827.00,0.0077
3826.00,0.0076
3825.00,0.0076
3824.00,0.0077
3823.00,0.0080
3822.00,0.0081
3821.00,0.0081
3820.00,0.0080
3819.00,0.0080
3818.00,0.0081
3817.00,0.0081
3816.00,0.0080
3815.00,0.0079
3814.00,0.0077
3813.00,0.0076
3812.00,0.0075
3811.00,0.0074
3810.00,0.0074
3809.00,0.0074
3808.00,0.0075
3807.00,0.0076
3806.00,0.0077
3805.00,0.0078
3804.00,0.0079
3803.00,0.0081
3802.00,0.0082
3801.00,0.0081
3800.00,0.0081
3799.00,0.0081
3798.00,0.0081
3797.00,0.0080
3796.00,0.0079
3795.00,0.0077
3794.00,0.0076
3793.00,0.0075
3792.00,0.0074
3791.00,0.0073
3790.00,0.0073
3789.00,0.0072
3788.00,0.0073
3787.00,0.0073
3786.00,0.0073
3785.00,0.0073
3784.00,0.0074
3783.00,0.0074
3782.00,0.0076
3781.00,0.0077
3780.00,0.0077
3779.00,0.0076
3778.00,0.0075
3777.00,0.0074
3776.00,0.0074
3775.00,0.0074
3774.00,0.0074
3773.00,0.0075
3772.00,0.0075
3771.00,0.0076
3770.00,0.0077
3769.00,0.0078
3768.00,0.0079
3767.00,0.0081
3766.00,0.0081
3765.00,0.0081
3764.00,0.0081
3763.00,0.0081
3762.00,0.0082
3761.00,0.0083
3760.00,0.0083
3759.00,0.0083
3758.00,0.0083
3757.00,0.0084
3756.00,0.0085
3755.00,0.0086
3754.00,0.0087
3753.00,0.0089
3752.00,0.0090
3751.00,0.0091
3750.00,0.0093
3749.00,0.0094
3748.00,0.0095
3747.00,0.0096
3746.00,0.0097
3745.00,0.0097
3744.00,0.0096
3743.00,0.0094
3742.00,0.0094
3741.00,0.0094
3740.00,0.0094
3739.00,0.0096
3738.00,0.0098
3737.00,0.0099
3736.00,0.0099
3735.00,0.0098
3734.00,0.0096
3733.00,0.0096
3732.00,0.0095
3731.00,0.0094
3730.00,0.0093
3729.00,0.0093
3728.00,0.0094
3727.00,0.0094
3726.00,0.0094
3725.00,0.0093
3724.00,0.0093
3723.00,0.0093
3722.00,0.0092
3721.00,0.0092
3720.00,0.0091
3719.00,0.0091
3718.00,0.0091
3717.00,0.0091
3716.00,0.0091
3715.00,0.0093
3714.00,0.0095
3713.00,0.0097
3712.00,0.0099
3711.00,0.0100
3710.00,0.0101
3709.00,0.0102
3708.00,0.0102
3707.00,0.0102
3706.00,0.0102
3705.00,0.0102
3704.00,0.0102
3703.00,0.0102
3702.00,0.0102
3701.00,0.0102
3700.00,0.0103
3699.00,0.0104
3698.00,0.0105
3697.00,0.0106
3696.00,0.0107
3695.00,0.0108
3694.00,0.0110
3693.00,0.0113
3692.00,0.0115
3691.00,0.0118
3690.00,0.0120
3689.00,0.0123
3688.00,0.0126
3687.00,0.0128
3686.00,0.0130
3685.00,0.0130
3684.00,0.0131
3683.00,0.0132
3682.00,0.0133
3681.00,0.0135
3680.00,0.0136
3679.00,0.0139
3678.00,0.0143
3677.00,0.0148
3676.00,0.0154
3675.00,0.0159
3674.00,0.0163
3673.00,0.0168
3672.00,0.0173
3671.00,0.0177
3670.00,0.0179
3669.00,0.0181
3668.00,0.0183
3667.00,0.0185
3666.00,0.0187
3665.00,0.0189
3664.00,0.0191
3663.00,0.0193
3662.00,0.0196
3661.00,0.0199
3660.00,0.0203
3659.00,0.0208
3658.00,0.0213
3657.00,0.0220
3656.00,0.0226
3655.00,0.0232
3654.00,0.0238
3653.00,0.0244
3652.00,0.0251
3651.00,0.0259
3650.00,0.0267
3649.00,0.0276
3648.00,0.0285
3647.00,0.0293
3646.00,0.0298
3645.00,0.0302
3644.00,0.0305
3643.00,0.0308
3642.00,0.0312
3641.00,0.0315
3640.00,0.0320
3639.00,0.0325
3638.00,0.0331
3637.00,0.0337
3636.00,0.0344
3635.00,0.0351
3634.00,0.0358
3633.00,0.0363
3632.00,0.0369
3631.00,0.0376
3630.00,0.0386
3629.00,0.0398
3628.00,0.0410
3627.00,0.0420
3626.00,0.0429
3625.00,0.0435
3624.00,0.0439
3623.00,0.0443
3622.00,0.0447
3621.00,0.0453
3620.00,0.0460
3619.00,0.0469
3618.00,0.0479
3617.00,0.0489
3616.00,0.0498
3615.00,0.0505
3614.00,0.0512
3613.00,0.0519
3612.00,0.0526
3611.00,0.0533
3610.00,0.0541
3609.00,0.0549
3608.00,0.0556
3607.00,0.0563
3606.00,0.0570
3605.00,0.0577
3604.00,0.0583
3603.00,0.0589
3602.00,0.0595
3601.00,0.0601
3600.00,0.0608
3599.00,0.0616
3598.00,0.0624
3597.00,0.0632
3596.00,0.0640
3595.00,0.0648
3594.00,0.0656
3593.00,0.0663
3592.00,0.0670
3591.00,0.0677
3590.00,0.0683
3589.00,0.0691
3588.00,0.0700
3587.00,0.0710
3586.00,0.0721
3585.00,0.0731
3584.00,0.0738
3583.00,0.0744
3582.00,0.0749
3581.00,0.0754
3580.00,0.0760
3579.00,0.0766
3578.00,0.0773
3577.00,0.0781
3576.00,0.0788
3575.00,0.0796
3574.00,0.0804
3573.00,0.0812
3572.00,0.0820
3571.00,0.0826
3570.00,0.0833
3569.00,0.0840
3568.00,0.0850
3567.00,0.0862
3566.00,0.0874
3565.00,0.0886
3564.00,0.0896
3563.00,0.0903
3562.00,0.0909
3561.00,0.0915
3560.00,0.0920
3559.00,0.0926
3558.00,0.0933
3557.00,0.0940
3556.00,0.0947
3555.00,0.0954
3554.00,0.0962
3553.00,0.0971
3552.00,0.0980
3551.00,0.0990
3550.00,0.0999
3549.00,0.1007
3548.00,0.1015
3547.00,0.1022
3546.00,0.1030
3545.00,0.1039
3544.00,0.1047
3543.00,0.1055
3542.00,0.1062
3541.00,0.1069
3540.00,0.1074
3539.00,0.1080
3538.00,0.1086
3537.00,0.1092
3536.00,0.1100
3535.00,0.1107
3534.00,0.1114
3533.00,0.1120
3532.00,0.1126
3531.00,0.1131
3530.00,0.1137
3529.00,0.1144
3528.00,0.1151
3527.00,0.1160
3526.00,0.1168
3525.00,0.1176
3524.00,0.1183
3523.00,0.1189
3522.00,0.1195
3521.00,0.1201
3520.00,0.1207
3519.00,0.1212
3518.00,0.1218
3517.00,0.1223
3516.00,0.1229
3515.00,0.1235
3514.00,0.1242
3513.00,0.1248
3512.00,0.1254
3511.00,0.1259
3510.00,0.1266
3509.00,0.1273
3508.00,0.1280
3507.00,0.1287
3506.00,0.1294
3505.00,0.1300
3504.00,0.1307
3503.00,0.1314
3502.00,0.1321
3501.00,0.1327
3500.00,0.1334
3499.00,0.1340
3498.00,0.1346
3497.00,0.1352
3496.00,0.1358
3495.00,0.1364
3494.00,0.1371
3493.00,0.1377
3492.00,0.1383
3491.00,0.1389
3490.00,0.1395
3489.00,0.1401
3488.00,0.1408
3487.00,0.1415
3486.00,0.1422
3485.00,0.1428
3484.00,0.1434
3483.00,0.1440
3482.00,0.1447
3481.00,0.1453
3480.00,0.1460
3479.00,0.1467
3478.00,0.1472
3477.00,0.1478
3476.00,0.1484
3475.00,0.1490
3474.00,0.1496
3473.00,0.1503
3472.00,0.1510
3471.00,0.1516
3470.00,0.1523
3469.00,0.1529
3468.00,0.1535
3467.00,0.1541
3466.00,0.1547
3465.00,0.1553
3464.00,0.1559
3463.00,0.1565
3462.00,0.1571
3461.00,0.1577
3460.00,0.1583
3459.00,0.1590
3458.00,0.1596
3457.00,0.1602
3456.00,0.1607
3455.00,0.1613
3454.00,0.1618
3453.00,0.1624
3452.00,0.1630
3451.00,0.1635
3450.00,0.1641
3449.00,0.1647
3448.00,0.1653
3447.00,0.1660
3446.00,0.1667
3445.00,0.1674
3444.00,0.1680
3443.00,0.1685
3442.00,0.1691
3441.00,0.1697
3440.00,0.1703
3439.00,0.1709
3438.00,0.1716
3437.00,0.1722
3436.00,0.1728
3435.00,0.1734
3434.00,0.1740
3433.00,0.1745
3432.00,0.1751
3431.00,0.1757
3430.00,0.1763
3429.00,0.1768
3428.00,0.1773
3427.00,0.1778
3426.00,0.1783
3425.00,0.1789
3424.00,0.1794
3423.00,0.1800
3422.00,0.1806
3421.00,0.1812
3420.00,0.1818
3419.00,0.1824
3418.00,0.1830
3417.00,0.1836
3416.00,0.1842
3415.00,0.1847
3414.00,0.1853
3413.00,0.1858
3412.00,0.1862
3411.00,0.1867
3410.00,0.1871
3409.00,0.1876
3408.00,0.1880
3407.00,0.1884
3406.00,0.1888
3405.00,0.1893
3404.00,0.1897
3403.00,0.1901
3402.00,0.1905
3401.00,0.1908
3400.00,0.1911
3399.00,0.1913
3398.00,0.1916
3397.00,0.1919
3396.00,0.1922
3395.00,0.1925
3394.00,0.1927
3393.00,0.1930
3392.00,0.1932
3391.00,0.1934
3390.00,0.1936
3389.00,0.1937
3388.00,0.1938
3387.00,0.1939
3386.00,0.1940
3385.00,0.1941
3384.00,0.1943
3383.00,0.1946
3382.00,0.1948
3381.00,0.1949
3380.00,0.1949
3379.00,0.1950
3378.00,0.1950
3377.00,0.1951
3376.00,0.1952
3375.00,0.1953
3374.00,0.1953
3373.00,0.1953
3372.00,0.1954
3371.00,0.1954
3370.00,0.1955
3369.00,0.1956
3368.00,0.1956
3367.00,0.1956
3366.00,0.1956
3365.00,0.1956
3364.00,0.1956
3363.00,0.1957
3362.00,0.1957
3361.00,0.1957
3360.00,0.1957
3359.00,0.1957
3358.00,0.1956
3357.00,0.1956
3356.00,0.1956
3355.00,0.1956
3354.00,0.1955
3353.00,0.1955
3352.00,0.1955
3351.00,0.1954
3350.00,0.1953
3349.00,0.1952
3348.00,0.1950
3347.00,0.1949
3346.00,0.1948
3345.00,0.1948
3344.00,0.1948
3343.00,0.1947
3342.00,0.1946
3341.00,0.1946
3340.00,0.1944
3339.00,0.1943
3338.00,0.1942
3337.00,0.1940
3336.00,0.1939
3335.00,0.1938
3334.00,0.1937
3333.00,0.1935
3332.00,0.1934
3331.00,0.1932
3330.00,0.1931
3329.00,0.1930
3328.00,0.1929
3327.00,0.1927
3326.00,0.1926
3325.00,0.1925
3324.00,0.1923
3323.00,0.1922
3322.00,0.1921
3321.00,0.1920
3320.00,0.1918
3319.00,0.1916
3318.00,0.1915
3317.00,0.1914
3316.00,0.1912
3315.00,0.1911
3314.00,0.1910
3313.00,0.1910
3312.00,0.1909
3311.00,0.1908
3310.00,0.1907
3309.00,0.1905
3308.00,0.1904
3307.00,0.1903
3306.00,0.1902
3305.00,0.1901
3304.00,0.1900
3303.00,0.1899
3302.00,0.1898
3301.00,0.1897
3300.00,0.1895
3299.00,0.1894
3298.00,0.1892
3297.00,0.1891
3296.00,0.1890
3295.00,0.1889
3294.00,0.1888
3293.00,0.1886
3292.00,0.1886
3291.00,0.1885
3290.00,0.1884
3289.00,0.1884
3288.00,0.1883
3287.00,0.1882
3286.00,0.1880
3285.00,0.1878
3284.00,0.1876
3283.00,0.1874
3282.00,0.1872
3281.00,0.1870
3280.00,0.1868
3279.00,0.1866
3278.00,0.1863
3277.00,0.1861
3276.00,0.1858
3275.00,0.1855
3274.00,0.1853
3273.00,0.1850
3272.00,0.1847
3271.00,0.1844
3270.00,0.1841
3269.00,0.1838
3268.00,0.1835
3267.00,0.1831
3266.00,0.1828
3265.00,0.1825
3264.00,0.1821
3263.00,0.1818
3262.00,0.1814
3261.00,0.1810
3260.00,0.1806
3259.00,0.1802
3258.00,0.1798
3257.00,0.1793
3256.00,0.1789
3255.00,0.1785
3254.00,0.1781
3253.00,0.1777
3252.00,0.1773
3251.00,0.1768
3250.00,0.1764
3249.00,0.1759
3248.00,0.1755
3247.00,0.1751
3246.00,0.1747
3245.00,0.1742
3244.00,0.1738
3243.00,0.1733
3242.00,0.1729
3241.00,0.1724
3240.00,0.1719
3239.00,0.1714
3238.00,0.1709
3237.00,0.1705
3236.00,0.1700
3235.00,0.1694
3234.00,0.1690
3233.00,0.1685
3232.00,0.1679
3231.00,0.1674
3230.00,0.1669
3229.00,0.1663
3228.00,0.1658
3227.00,0.1653
3226.00,0.1648
3225.00,0.1643
3224.00,0.1638
3223.00,0.1632
3222.00,0.1627
3221.00,0.1621
3220.00,0.1615
3219.00,0.1609
3218.00,0.1604
3217.00,0.1598
3216.00,0.1592
3215.00,0.1587
3214.00,0.1581
3213.00,0.1576
3212.00,0.1570
3211.00,0.1564
3210.00,0.1558
3209.00,0.1552
3208.00,0.1546
3207.00,0.1540
3206.00,0.1534
3205.00,0.1528
3204.00,0.1521
3203.00,0.1515
3202.00,0.1508
3201.00,0.1502
3200.00,0.1495
3199.00,0.1488
3198.00,0.1482
3197.00,0.1475
3196.00,0.1469
3195.00,0.1462
3194.00,0.1456
3193.00,0.1449
3192.00,0.1442
3191.00,0.1435
3190.00,0.1428
3189.00,0.1421
3188.00,0.1414
3187.00,0.1407
3186.00,0.1400
3185.00,0.1393
3184.00,0.1386
3183.00,0.1379
3182.00,0.1373
3181.00,0.1366
3180.00,0.1359
3179.00,0.1352
3178.00,0.1345
3177.00,0.1338
3176.00,0.1330
3175.00,0.1323
3174.00,0.1316
3173.00,0.1309
3172.00,0.1301
3171.00,0.1294
3170.00,0.1286
3169.00,0.1279
3168.00,0.1271
3167.00,0.1264
3166.00,0.1257
3165.00,0.1250
3164.00,0.1243
3163.00,0.1236
3162.00,0.1229
3161.00,0.1221
3160.00,0.1213
3159.00,0.1206
3158.00,0.1199
3157.00,0.1192
3156.00,0.1185
3155.00,0.1179
3154.00,0.1172
3153.00,0.1165
3152.00,0.1158
3151.00,0.1150
3150.00,0.1143
3149.00,0.1136
3148.00,0.1129
3147.00,0.1122
3146.00,0.1116
3145.00,0.1109
3144.00,0.1102
3143.00,0.1095
3142.00,0.1089
3141.00,0.1083
3140.00,0.1076
3139.00,0.1070
3138.00,0.1064
3137.00,0.1057
3136.00,0.1051
3135.00,0.1044
3134.00,0.1038
3133.00,0.1032
3132.00,0.1026
3131.00,0.1020
3130.00,0.1014
3129.00,0.1008
3128.00,0.1002
3127.00,0.0996
3126.00,0.0990
3125.00,0.0984
3124.00,0.0978
3123.00,0.0972
3122.00,0.0966
3121.00,0.0961
3120.00,0.0956
3119.00,0.0951
3118.00,0.0946
3117.00,0.0940
3116.00,0.0935
3115.00,0.0930
3114.00,0.0925
3113.00,0.0920
3112.00,0.0915
3111.00,0.0910
3110.00,0.0905
3109.00,0.0900
3108.00,0.0896
3107.00,0.0892
3106.00,0.0888
3105.00,0.0884
3104.00,0.0879
3103.00,0.0874
3102.00,0.0870
3101.00,0.0865
3100.00,0.0861
3099.00,0.0857
3098.00,0.0854
3097.00,0.0850
3096.00,0.0846
3095.00,0.0841
3094.00,0.0837
3093.00,0.0833
3092.00,0.0829
3091.00,0.0824
3090.00,0.0820
3089.00,0.0816
3088.00,0.0812
3087.00,0.0808
3086.00,0.0804
3085.00,0.0800
3084.00,0.0797
3083.00,0.0793
3082.00,0.0790
3081.00,0.0786
3080.00,0.0783
3079.00,0.0779
3078.00,0.0776
3077.00,0.0773
3076.00,0.0770
3075.00,0.0766
3074.00,0.0762
3073.00,0.0759
3072.00,0.0755
3071.00,0.0750
3070.00,0.0746
3069.00,0.0742
3068.00,0.0738
3067.00,0.0734
3066.00,0.0731
3065.00,0.0728
3064.00,0.0724
3063.00,0.0721
3062.00,0.0717
3061.00,0.0712
3060.00,0.0708
3059.00,0.0704
3058.00,0.0700
3057.00,0.0695
3056.00,0.0691
3055.00,0.0687
3054.00,0.0683
3053.00,0.0679
3052.00,0.0675
3051.00,0.0671
3050.00,0.0667
3049.00,0.0663
3048.00,0.0659
3047.00,0.0654
3046.00,0.0650
3045.00,0.0646
3044.00,0.0642
3043.00,0.0638
3042.00,0.0634
3041.00,0.0630
3040.00,0.0626
3039.00,0.0622
3038.00,0.0619
3037.00,0.0615
3036.00,0.0611
3035.00,0.0607
3034.00,0.0603
3033.00,0.0600
3032.00,0.0597
3031.00,0.0594
3030.00,0.0591
3029.00,0.0588
3028.00,0.0584
3027.00,0.0581
3026.00,0.0577
3025.00,0.0574
3024.00,0.0570
3023.00,0.0567
3022.00,0.0564
3021.00,0.0561
3020.00,0.0558
3019.00,0.0555
3018.00,0.0552
3017.00,0.0550
3016.00,0.0547
3015.00,0.0544
3014.00,0.0542
3013.00,0.0540
3012.00,0.0538
3011.00,0.0536
3010.00,0.0533
3009.00,0.0531
3008.00,0.0528
3007.00,0.0525
3006.00,0.0523
3005.00,0.0521
3004.00,0.0519
3003.00,0.0517
3002.00,0.0515
3001.00,0.0513
3000.00,0.0511
2999.00,0.0509
2998.00,0.0508
2997.00,0.0507
2996.00,0.0505
2995.00,0.0504
2994.00,0.0504
2993.00,0.0503
2992.00,0.0504
2991.00,0.0504
2990.00,0.0504
2989.00,0.0504
2988.00,0.0504
2987.00,0.0504
2986.00,0.0505
2985.00,0.0505
2984.00,0.0506
2983.00,0.0507
2982.00,0.0508
2981.00,0.0509
2980.00,0.0510
2979.00,0.0511
2978.00,0.0513
2977.00,0.0514
2976.00,0.0516
2975.00,0.0518
2974.00,0.0519
2973.00,0.0521
2972.00,0.0523
2971.00,0.0525
2970.00,0.0526
2969.00,0.0528
2968.00,0.0529
2967.00,0.0530
2966.00,0.0531
2965.00,0.0532
2964.00,0.0534
2963.00,0.0534
2962.00,0.0535
2961.00,0.0535
2960.00,0.0534
2959.00,0.0533
2958.00,0.0532
2957.00,0.0530
2956.00,0.0528
2955.00,0.0526
2954.00,0.0523
2953.00,0.0521
2952.00,0.0519
2951.00,0.0518
2950.00,0.0516
2949.00,0.0515
2948.00,0.0514
2947.00,0.0513
2946.00,0.0512
2945.00,0.0512
2944.00,0.0513
2943.00,0.0514
2942.00,0.0515
2941.00,0.0516
2940.00,0.0517
2939.00,0.0518
2938.00,0.0519
2937.00,0.0521
2936.00,0.0522
2935.00,0.0523
2934.00,0.0524
2933.00,0.0524
2932.00,0.0524
2931.00,0.0524
2930.00,0.0524
2929.00,0.0525
2928.00,0.0525
2927.00,0.0525
2926.00,0.0525
2925.00,0.0524
2924.00,0.0523
2923.00,0.0521
2922.00,0.0519
2921.00,0.0516
2920.00,0.0513
2919.00,0.0509
2918.00,0.0505
2917.00,0.0500
2916.00,0.0495
2915.00,0.0490
2914.00,0.0484
2913.00,0.0479
2912.00,0.0474
2911.00,0.0470
2910.00,0.0466
2909.00,0.0462
2908.00,0.0458
2907.00,0.0454
2906.00,0.0450
2905.00,0.0446
2904.00,0.0443
2903.00,0.0440
2902.00,0.0437
2901.00,0.0434
2900.00,0.0431
2899.00,0.0428
2898.00,0.0425
2897.00,0.0421
2896.00,0.0418
2895.00,0.0416
2894.00,0.0413
2893.00,0.0411
2892.00,0.0408
2891.00,0.0406
2890.00,0.0404
2889.00,0.0401
2888.00,0.0399
2887.00,0.0397
2886.00,0.0394
2885.00,0.0392
2884.00,0.0391
2883.00,0.0389
2882.00,0.0388
2881.00,0.0387
2880.00,0.0386
2879.00,0.0385
2878.00,0.0384
2877.00,0.0382
2876.00,0.0380
2875.00,0.0378
2874.00,0.0376
2873.00,0.0375
2872.00,0.0373
2871.00,0.0370
2870.00,0.0368
2869.00,0.0365
2868.00,0.0362
2867.00,0.0358
2866.00,0.0355
2865.00,0.0353
2864.00,0.0351
2863.00,0.0349
2862.00,0.0348
2861.00,0.0347
2860.00,0.0346
2859.00,0.0346
2858.00,0.0346
2857.00,0.0346
2856.00,0.0346
2855.00,0.0346
2854.00,0.0345
2853.00,0.0344
2852.00,0.0342
2851.00,0.0340
2850.00,0.0336
2849.00,0.0332
2848.00,0.0327
2847.00,0.0321
2846.00,0.0316
2845.00,0.0311
2844.00,0.0306
2843.00,0.0301
2842.00,0.0297
2841.00,0.0294
2840.00,0.0290
2839.00,0.0288
2838.00,0.0285
2837.00,0.0283
2836.00,0.0281
2835.00,0.0279
2834.00,0.0277
2833.00,0.0275
2832.00,0.0273
2831.00,0.0271
2830.00,0.0270
2829.00,0.0268
2828.00,0.0266
2827.00,0.0265
2826.00,0.0263
2825.00,0.0262
2824.00,0.0261
2823.00,0.0259
2822.00,0.0258
2821.00,0.0257
2820.00,0.0255
2819.00,0.0254
2818.00,0.0252
2817.00,0.0251
2816.00,0.0250
2815.00,0.0249
2814.00,0.0248
2813.00,0.0246
2812.00,0.0245
2811.00,0.0244
2810.00,0.0242
2809.00,0.0241
2808.00,0.0240
2807.00,0.0239
2806.00,0.0238
2805.00,0.0236
2804.00,0.0236
2803.00,0.0235
2802.00,0.0234
2801.00,0.0233
2800.00,0.0231
2799.00,0.0230
2798.00,0.0228
2797.00,0.0227
2796.00,0.0227
2795.00,0.0226
2794.00,0.0225
2793.00,0.0224
2792.00,0.0223
2791.00,0.0221
2790.00,0.0220
2789.00,0.0219
2788.00,0.0218
2787.00,0.0218
2786.00,0.0217
2785.00,0.0217
2784.00,0.0216
2783.00,0.0215
2782.00,0.0214
2781.00,0.0213
2780.00,0.0212
2779.00,0.0211
2778.00,0.0210
2777.00,0.0209
2776.00,0.0208
2775.00,0.0207
2774.00,0.0206
2773.00,0.0206
2772.00,0.0205
2771.00,0.0204
2770.00,0.0203
2769.00,0.0203
2768.00,0.0203
2767.00,0.0202
2766.00,0.0201
2765.00,0.0200
2764.00,0.0200
2763.00,0.0199
2762.00,0.0198
2761.00,0.0197
2760.00,0.0196
2759.00,0.0196
2758.00,0.0195
2757.00,0.0194
2756.00,0.0194
2755.00,0.0193
2754.00,0.0193
2753.00,0.0192
2752.00,0.0191
2751.00,0.0191
2750.00,0.0190
2749.00,0.0190
2748.00,0.0189
2747.00,0.0188
2746.00,0.0188
2745.00,0.0187
2744.00,0.0186
2743.00,0.0186
2742.00,0.0185
2741.00,0.0184
2740.00,0.0184
2739.00,0.0183
2738.00,0.0183
2737.00,0.0182
2736.00,0.0182
2735.00,0.0181
2734.00,0.0181
2733.00,0.0180
2732.00,0.0180
2731.00,0.0179
2730.00,0.0179
2729.00,0.0178
2728.00,0.0177
2727.00,0.0177
2726.00,0.0176
2725.00,0.0176
2724.00,0.0175
2723.00,0.0174
2722.00,0.0174
2721.00,0.0173
2720.00,0.0173
2719.00,0.0172
2718.00,0.0172
2717.00,0.0171
2716.00,0.0171
2715.00,0.0170
2714.00,0.0170
2713.00,0.0169
2712.00,0.0169
2711.00,0.0168
2710.00,0.0168
2709.00,0.0167
2708.00,0.0167
2707.00,0.0166
2706.00,0.0166
2705.00,0.0165
2704.00,0.0165
2703.00,0.0165
2702.00,0.0164
2701.00,0.0164
2700.00,0.0163
2699.00,0.0163
2698.00,0.0162
2697.00,0.0162
2696.00,0.0161
2695.00,0.0161
2694.00,0.0160
2693.00,0.0160
2692.00,0.0160
2691.00,0.0160
2690.00,0.0159
2689.00,0.0159
2688.00,0.0158
2687.00,0.0158
2686.00,0.0157
2685.00,0.0157
2684.00,0.0156
2683.00,0.0156
2682.00,0.0156
2681.00,0.0156
2680.00,0.0155
2679.00,0.0155
2678.00,0.0155
2677.00,0.0154
2676.00,0.0154
2675.00,0.0153
2674.00,0.0153
2673.00,0.0152
2672.00,0.0152
2671.00,0.0152
2670.00,0.0152
2669.00,0.0152
2668.00,0.0152
2667.00,0.0152
2666.00,0.0151
2665.00,0.0151
2664.00,0.0151
2663.00,0.0151
2662.00,0.0152
2661.00,0.0152
2660.00,0.0152
2659.00,0.0152
2658.00,0.0151
2657.00,0.0151
2656.00,0.0150
2655.00,0.0150
2654.00,0.0150
2653.00,0.0149
2652.00,0.0149
2651.00,0.0148
2650.00,0.0148
2649.00,0.0148
2648.00,0.0147
2647.00,0.0147
2646.00,0.0147
2645.00,0.0147
2644.00,0.0146
2643.00,0.0146
2642.00,0.0145
2641.00,0.0145
2640.00,0.0144
2639.00,0.0144
2638.00,0.0143
2637.00,0.0143
2636.00,0.0142
2635.00,0.0141
2634.00,0.0140
2633.00,0.0139
2632.00,0.0139
2631.00,0.0138
2630.00,0.0138
2629.00,0.0138
2628.00,0.0138
2627.00,0.0138
2626.00,0.0137
2625.00,0.0136
2624.00,0.0135
2623.00,0.0135
2622.00,0.0134
2621.00,0.0134
2620.00,0.0134
2619.00,0.0134
2618.00,0.0134
2617.00,0.0134
2616.00,0.0133
2615.00,0.0132
2614.00,0.0131
2613.00,0.0131
2612.00,0.0131
2611.00,0.0130
2610.00,0.0129
2609.00,0.0129
2608.00,0.0129
2607.00,0.0128
2606.00,0.0128
2605.00,0.0128
2604.00,0.0128
2603.00,0.0127
2602.00,0.0126
2601.00,0.0126
2600.00,0.0127
2599.00,0.0127
2598.00,0.0127
2597.00,0.0126
2596.00,0.0125
2595.00,0.0124
2594.00,0.0123
2593.00,0.0123
2592.00,0.0123
2591.00,0.0122
2590.00,0.0122
2589.00,0.0122
2588.00,0.0121
2587.00,0.0121
2586.00,0.0120
2585.00,0.0120
2584.00,0.0120
2583.00,0.0120
2582.00,0.0120
2581.00,0.0120
2580.00,0.0120
2579.00,0.0121
2578.00,0.0121
2577.00,0.0120
2576.00,0.0120
2575.00,0.0119
2574.00,0.0118
2573.00,0.0117
2572.00,0.0117
2571.00,0.0116
2570.00,0.0116
2569.00,0.0116
2568.00,0.0115
2567.00,0.0114
2566.00,0.0114
2565.00,0.0113
2564.00,0.0114
2563.00,0.0114
2562.00,0.0115
2561.00,0.0115
2560.00,0.0115
2559.00,0.0115
2558.00,0.0115
2557.00,0.0114
2556.00,0.0113
2555.00,0.0112
2554.00,0.0112
2553.00,0.0113
2552.00,0.0113
2551.00,0.0113
2550.00,0.0112
2549.00,0.0112
2548.00,0.0112
2547.00,0.0112
2546.00,0.0112
2545.00,0.0112
2544.00,0.0112
2543.00,0.0111
2542.00,0.0110
2541.00,0.0110
2540.00,0.0110
2539.00,0.0110
2538.00,0.0110
2537.00,0.0111
2536.00,0.0111
2535.00,0.0111
2534.00,0.0110
2533.00,0.0110
2532.00,0.0110
2531.00,0.0110
2530.00,0.0109
2529.00,0.0109
2528.00,0.0109
2527.00,0.0110
2526.00,0.0110
2525.00,0.0110
2524.00,0.0110
2523.00,0.0110
2522.00,0.0110
2521.00,0.0109
2520.00,0.0109
2519.00,0.0109
2518.00,0.0108
2517.00,0.0107
2516.00,0.0107
2515.00,0.0107
2514.00,0.0107
2513.00,0.0107
2512.00,0.0107
2511.00,0.0107
2510.00,0.0107
2509.00,0.0107
2508.00,0.0107
2507.00,0.0107
2506.00,0.0107
2505.00,0.0107
2504.00,0.0107
2503.00,0.0107
2502.00,0.0107
2501.00,0.0107
2500.00,0.0107
2499.00,0.0107
2498.00,0.0107
2497.00,0.0107
2496.00,0.0108
2495.00,0.0108
2494.00,0.0107
2493.00,0.0106
2492.00,0.0106
2491.00,0.0106
2490.00,0.0105
2489.00,0.0106
2488.00,0.0106
2487.00,0.0106
2486.00,0.0105
2485.00,0.0105
2484.00,0.0105
2483.00,0.0105
2482.00,0.0104
2481.00,0.0104
2480.00,0.0104
2479.00,0.0104
2478.00,0.0103
2477.00,0.0103
2476.00,0.0103
2475.00,0.0103
2474.00,0.0103
2473.00,0.0104
2472.00,0.0104
2471.00,0.0104
2470.00,0.0104
2469.00,0.0104
2468.00,0.0104
2467.00,0.0104
2466.00,0.0103
2465.00,0.0103
2464.00,0.0103
2463.00,0.0104
2462.00,0.0104
2461.00,0.0105
2460.00,0.0105
2459.00,0.0105
2458.00,0.0106
2457.00,0.0106
2456.00,0.0106
2455.00,0.0106
2454.00,0.0105
2453.00,0.0105
2452.00,0.0105
2451.00,0.0105
2450.00,0.0105
2449.00,0.0105
2448.00,0.0105
2447.00,0.0104
2446.00,0.0104
2445.00,0.0103
2444.00,0.0103
2443.00,0.0104
2442.00,0.0104
2441.00,0.0104
2440.00,0.0104
2439.00,0.0104
2438.00,0.0103
2437.00,0.0103
2436.00,0.0102
2435.00,0.0103
2434.00,0.0103
2433.00,0.0103
2432.00,0.0103
2431.00,0.0103
2430.00,0.0102
2429.00,0.0101
2428.00,0.0101
2427.00,0.0101
2426.00,0.0101
2425.00,0.0102
2424.00,0.0102
2423.00,0.0102
2422.00,0.0102
2421.00,0.0101
2420.00,0.0102
2419.00,0.0102
2418.00,0.0101
2417.00,0.0101
2416.00,0.0101
2415.00,0.0101
2414.00,0.0101
2413.00,0.0101
2412.00,0.0102
2411.00,0.0102
2410.00,0.0103
2409.00,0.0103
2408.00,0.0102
2407.00,0.0102
2406.00,0.0102
2405.00,0.0102
2404.00,0.0101
2403.00,0.0101
2402.00,0.0101
2401.00,0.0101
2400.00,0.0101
2399.00,0.0102
2398.00,0.0102
2397.00,0.0101
2396.00,0.0101
2395.00,0.0101
2394.00,0.0101
2393.00,0.0102
2392.00,0.0102
2391.00,0.0102
2390.00,0.0102
2389.00,0.0102
2388.00,0.0102
2387.00,0.0102
2386.00,0.0102
2385.00,0.0102
2384.00,0.0102
2383.00,0.0102
2382.00,0.0102
2381.00,0.0102
2380.00,0.0102
2379.00,0.0101
2378.00,0.0101
2377.00,0.0101
2376.00,0.0102
2375.00,0.0102
2374.00,0.0103
2373.00,0.0103
2372.00,0.0103
2371.00,0.0103
2370.00,0.0103
2369.00,0.0102
2368.00,0.0102
2367.00,0.0101
2366.00,0.0101
2365.00,0.0102
2364.00,0.0104
2363.00,0.0105
2362.00,0.0107
2361.00,0.0107
2360.00,0.0107
2359.00,0.0107
2358.00,0.0106
2357.00,0.0106
2356.00,0.0107
2355.00,0.0107
2354.00,0.0108
2353.00,0.0108
2352.00,0.0107
2351.00,0.0106
2350.00,0.0106
2349.00,0.0108
2348.00,0.0110
2347.00,0.0113
2346.00,0.0113
2345.00,0.0113
2344.00,0.0112
2343.00,0.0112
2342.00,0.0113
2341.00,0.0114
2340.00,0.0114
2339.00,0.0114
2338.00,0.0115
2337.00,0.0115
2336.00,0.0115
2335.00,0.0116
2334.00,0.0116
2333.00,0.0115
2332.00,0.0114
2331.00,0.0114
2330.00,0.0113
2329.00,0.0115
2328.00,0.0117
2327.00,0.0121
2326.00,0.0126
2325.00,0.0130
2324.00,0.0132
2323.00,0.0131
2322.00,0.0129
2321.00,0.0127
2320.00,0.0125
2319.00,0.0124
2318.00,0.0123
2317.00,0.0123
2316.00,0.0123
2315.00,0.0122
2314.00,0.0121
2313.00,0.0120
2312.00,0.0120
2311.00,0.0120
2310.00,0.0120
2309.00,0.0120
2308.00,0.0120
2307.00,0.0119
2306.00,0.0118
2305.00,0.0118
2304.00,0.0118
2303.00,0.0119
2302.00,0.0120
2301.00,0.0121
2300.00,0.0121
2299.00,0.0122
2298.00,0.0122
2297.00,0.0124
2296.00,0.0125
2295.00,0.0125
2294.00,0.0126
2293.00,0.0126
2292.00,0.0126
2291.00,0.0126
2290.00,0.0127
2289.00,0.0128
2288.00,0.0129
2287.00,0.0129
2286.00,0.0129
2285.00,0.0130
2284.00,0.0131
2283.00,0.0131
2282.00,0.0131
2281.00,0.0131
2280.00,0.0130
2279.00,0.0129
2278.00,0.0127
2277.00,0.0125
2276.00,0.0124
2275.00,0.0124
2274.00,0.0123
2273.00,0.0124
2272.00,0.0124
2271.00,0.0125
2270.00,0.0126
2269.00,0.0126
2268.00,0.0125
2267.00,0.0123
2266.00,0.0122
2265.00,0.0121
2264.00,0.0120
2263.00,0.0120
2262.00,0.0119
2261.00,0.0119
2260.00,0.0120
2259.00,0.0120
2258.00,0.0121
2257.00,0.0122
2256.00,0.0122
2255.00,0.0120
2254.00,0.0119
2253.00,0.0118
2252.00,0.0118
2251.00,0.0118
2250.00,0.0118
2249.00,0.0119
2248.00,0.0119
2247.00,0.0119
2246.00,0.0119
2245.00,0.0118
2244.00,0.0118
2243.00,0.0118
2242.00,0.0118
2241.00,0.0118
2240.00,0.0119
2239.00,0.0118
2238.00,0.0117
2237.00,0.0117
2236.00,0.0116
2235.00,0.0116
2234.00,0.0116
2233.00,0.0116
2232.00,0.0118
2231.00,0.0119
2230.00,0.0120
2229.00,0.0121
2228.00,0.0121
2227.00,0.0121
2226.00,0.0121
2225.00,0.0120
2224.00,0.0119
2223.00,0.0117
2222.00,0.0117
2221.00,0.0118
2220.00,0.0120
2219.00,0.0121
2218.00,0.0122
2217.00,0.0123
2216.00,0.0124
2215.00,0.0124
2214.00,0.0123
2213.00,0.0122
2212.00,0.0121
2211.00,0.0120
2210.00,0.0118
2209.00,0.0118
2208.00,0.0118
2207.00,0.0118
2206.00,0.0119
2205.00,0.0120
2204.00,0.0120
2203.00,0.0119
2202.00,0.0118
2201.00,0.0116
2200.00,0.0116
2199.00,0.0117
2198.00,0.0118
2197.00,0.0119
2196.00,0.0118
2195.00,0.0116
2194.00,0.0115
2193.00,0.0113
2192.00,0.0113
2191.00,0.0113
2190.00,0.0115
2189.00,0.0117
2188.00,0.0119
2187.00,0.0120
2186.00,0.0119
2185.00,0.0118
2184.00,0.0117
2183.00,0.0115
2182.00,0.0114
2181.00,0.0114
2180.00,0.0115
2179.00,0.0115
2178.00,0.0115
2177.00,0.0114
2176.00,0.0113
2175.00,0.0112
2174.00,0.0112
2173.00,0.0112
2172.00,0.0113
2171.00,0.0114
2170.00,0.0116
2169.00,0.0119
2168.00,0.0121
2167.00,0.0121
2166.00,0.0119
2165.00,0.0117
2164.00,0.0116
2163.00,0.0117
2162.00,0.0117
2161.00,0.0113
2160.00,0.0102
2159.00,0.0085
2158.00,0.0069
2157.00,0.0062
2156.00,0.0064
2155.00,0.0070
2154.00,0.0076
2153.00,0.0081
2152.00,0.0084
2151.00,0.0087
2150.00,0.0090
2149.00,0.0092
2148.00,0.0093
2147.00,0.0092
2146.00,0.0091
2145.00,0.0091
2144.00,0.0092
2143.00,0.0093
2142.00,0.0093
2141.00,0.0094
2140.00,0.0094
2139.00,0.0095
2138.00,0.0095
2137.00,0.0096
2136.00,0.0096
2135.00,0.0096
2134.00,0.0096
2133.00,0.0097
2132.00,0.0099
2131.00,0.0101
2130.00,0.0104
2129.00,0.0107
2128.00,0.0110
2127.00,0.0113
2126.00,0.0115
2125.00,0.0116
2124.00,0.0117
2123.00,0.0118
2122.00,0.0119
2121.00,0.0119
2120.00,0.0119
2119.00,0.0120
2118.00,0.0121
2117.00,0.0124
2116.00,0.0127
2115.00,0.0129
2114.00,0.0129
2113.00,0.0128
2112.00,0.0127
2111.00,0.0127
2110.00,0.0128
2109.00,0.0129
2108.00,0.0130
2107.00,0.0130
2106.00,0.0130
2105.00,0.0130
2104.00,0.0130
2103.00,0.0129
2102.00,0.0128
2101.00,0.0127
2100.00,0.0127
2099.00,0.0127
2098.00,0.0127
2097.00,0.0127
2096.00,0.0125
2095.00,0.0122
2094.00,0.0120
2093.00,0.0119
2092.00,0.0119
2091.00,0.0120
2090.00,0.0122
2089.00,0.0123
2088.00,0.0124
2087.00,0.0124
2086.00,0.0124
2085.00,0.0125
2084.00,0.0125
2083.00,0.0125
2082.00,0.0124
2081.00,0.0124
2080.00,0.0124
2079.00,0.0124
2078.00,0.0124
2077.00,0.0124
2076.00,0.0124
2075.00,0.0123
2074.00,0.0122
2073.00,0.0121
2072.00,0.0121
2071.00,0.0121
2070.00,0.0121
2069.00,0.0119
2068.00,0.0118
2067.00,0.0116
2066.00,0.0114
2065.00,0.0113
2064.00,0.0112
2063.00,0.0110
2062.00,0.0109
2061.00,0.0108
2060.00,0.0108
2059.00,0.0109
2058.00,0.0109
2057.00,0.0109
2056.00,0.0108
2055.00,0.0107
2054.00,0.0107
2053.00,0.0111
2052.00,0.0116
2051.00,0.0118
2050.00,0.0117
2049.00,0.0112
2048.00,0.0107
2047.00,0.0103
2046.00,0.0099
2045.00,0.0096
2044.00,0.0095
2043.00,0.0095
2042.00,0.0096
2041.00,0.0096
2040.00,0.0097
2039.00,0.0097
2038.00,0.0097
2037.00,0.0096
2036.00,0.0094
2035.00,0.0090
2034.00,0.0087
2033.00,0.0086
2032.00,0.0086
2031.00,0.0086
2030.00,0.0085
2029.00,0.0082
2028.00,0.0080
2027.00,0.0077
2026.00,0.0075
2025.00,0.0075
2024.00,0.0076
2023.00,0.0078
2022.00,0.0079
2021.00,0.0080
2020.00,0.0080
2019.00,0.0078
2018.00,0.0075
2017.00,0.0075
2016.00,0.0076
2015.00,0.0077
2014.00,0.0078
2013.00,0.0079
2012.00,0.0080
2011.00,0.0081
2010.00,0.0080
2009.00,0.0079
2008.00,0.0077
2007.00,0.0074
2006.00,0.0071
2005.00,0.0071
2004.00,0.0072
2003.00,0.0073
2002.00,0.0074
2001.00,0.0077
2000.00,0.0080
1999.00,0.0082
1998.00,0.0083
1997.00,0.0084
1996.00,0.0086
1995.00,0.0087
1994.00,0.0087
1993.00,0.0088
1992.00,0.0087
1991.00,0.0087
1990.00,0.0086
1989.00,0.0086
1988.00,0.0086
1987.00,0.0086
1986.00,0.0086
1985.00,0.0087
1984.00,0.0090
1983.00,0.0094
1982.00,0.0097
1981.00,0.0099
1980.00,0.0098
1979.00,0.0093
1978.00,0.0086
1977.00,0.0081
1976.00,0.0077
1975.00,0.0074
1974.00,0.0072
1973.00,0.0071
1972.00,0.0071
1971.00,0.0072
1970.00,0.0071
1969.00,0.0071
1968.00,0.0071
1967.00,0.0071
1966.00,0.0071
1965.00,0.0072
1964.00,0.0072
1963.00,0.0072
1962.00,0.0072
1961.00,0.0073
1960.00,0.0073
1959.00,0.0072
1958.00,0.0071
1957.00,0.0072
1956.00,0.0074
1955.00,0.0075
1954.00,0.0074
1953.00,0.0072
1952.00,0.0071
1951.00,0.0071
1950.00,0.0071
1949.00,0.0072
1948.00,0.0073
1947.00,0.0073
1946.00,0.0073
1945.00,0.0074
1944.00,0.0074
1943.00,0.0074
1942.00,0.0074
1941.00,0.0075
1940.00,0.0077
1939.00,0.0078
1938.00,0.0078
1937.00,0.0077
1936.00,0.0077
1935.00,0.0077
1934.00,0.0078
1933.00,0.0079
1932.00,0.0079
1931.00,0.0078
1930.00,0.0077
1929.00,0.0077
1928.00,0.0078
1927.00,0.0079
1926.00,0.0079
1925.00,0.0079
1924.00,0.0079
1923.00,0.0078
1922.00,0.0078
1921.00,0.0080
1920.00,0.0083
1919.00,0.0084
1918.00,0.0083
1917.00,0.0081
1916.00,0.0080
1915.00,0.0080
1914.00,0.0080
1913.00,0.0080
1912.00,0.0080
1911.00,0.0080
1910.00,0.0080
1909.00,0.0079
1908.00,0.0078
1907.00,0.0078
1906.00,0.0077
1905.00,0.0077
1904.00,0.0077
1903.00,0.0076
1902.00,0.0076
1901.00,0.0077
1900.00,0.0078
1899.00,0.0079
1898.00,0.0079
1897.00,0.0079
1896.00,0.0080
1895.00,0.0079
1894.00,0.0078
1893.00,0.0076
1892.00,0.0076
1891.00,0.0076
1890.00,0.0075
1889.00,0.0074
1888.00,0.0074
1887.00,0.0074
1886.00,0.0074
1885.00,0.0074
1884.00,0.0074
1883.00,0.0074
1882.00,0.0074
1881.00,0.0074
1880.00,0.0075
1879.00,0.0074
1878.00,0.0073
1877.00,0.0072
1876.00,0.0073
1875.00,0.0073
1874.00,0.0074
1873.00,0.0075
1872.00,0.0076
1871.00,0.0076
1870.00,0.0077
1869.00,0.0076
1868.00,0.0075
1867.00,0.0074
1866.00,0.0073
1865.00,0.0073
1864.00,0.0073
1863.00,0.0072
1862.00,0.0071
1861.00,0.0070
1860.00,0.0071
1859.00,0.0072
1858.00,0.0072
1857.00,0.0072
1856.00,0.0072
1855.00,0.0072
1854.00,0.0071
1853.00,0.0071
1852.00,0.0071
1851.00,0.0072
1850.00,0.0072
1849.00,0.0072
1848.00,0.0072
1847.00,0.0074
1846.00,0.0076
1845.00,0.0076
1844.00,0.0074
1843.00,0.0070
1842.00,0.0068
1841.00,0.0070
1840.00,0.0072
1839.00,0.0074
1838.00,0.0073
1837.00,0.0072
1836.00,0.0072
1835.00,0.0071
1834.00,0.0070
1833.00,0.0071
1832.00,0.0074
1831.00,0.0075
1830.00,0.0075
1829.00,0.0073
1828.00,0.0072
1827.00,0.0073
1826.00,0.0073
1825.00,0.0073
1824.00,0.0072
1823.00,0.0072
1822.00,0.0072
1821.00,0.0073
1820.00,0.0073
1819.00,0.0073
1818.00,0.0071
1817.00,0.0070
1816.00,0.0069
1815.00,0.0070
1814.00,0.0070
1813.00,0.0072
1812.00,0.0073
1811.00,0.0073
1810.00,0.0072
1809.00,0.0072
1808.00,0.0072
1807.00,0.0071
1806.00,0.0071
1805.00,0.0071
1804.00,0.0071
1803.00,0.0072
1802.00,0.0072
1801.00,0.0073
1800.00,0.0073
1799.00,0.0073
1798.00,0.0073
1797.00,0.0072
1796.00,0.0072
1795.00,0.0073
1794.00,0.0075
1793.00,0.0075
1792.00,0.0074
1791.00,0.0071
1790.00,0.0070
1789.00,0.0070
1788.00,0.0072
1787.00,0.0072
1786.00,0.0072
1785.00,0.0071
1784.00,0.0071
1783.00,0.0071
1782.00,0.0072
1781.00,0.0072
1780.00,0.0071
1779.00,0.0071
1778.00,0.0070
1777.00,0.0071
1776.00,0.0072
1775.00,0.0073
1774.00,0.0075
1773.00,0.0076
1772.00,0.0075
1771.00,0.0073
1770.00,0.0071
1769.00,0.0072
1768.00,0.0072
1767.00,0.0071
1766.00,0.0070
1765.00,0.0071
1764.00,0.0073
1763.00,0.0073
1762.00,0.0073
1761.00,0.0072
1760.00,0.0073
1759.00,0.0075
1758.00,0.0078
1757.00,0.0081
1756.00,0.0083
1755.00,0.0085
1754.00,0.0089
1753.00,0.0093
1752.00,0.0097
1751.00,0.0101
1750.00,0.0104
1749.00,0.0108
1748.00,0.0112
1747.00,0.0115
1746.00,0.0118
1745.00,0.0120
1744.00,0.0123
1743.00,0.0126
1742.00,0.0129
1741.00,0.0133
1740.00,0.0137
1739.00,0.0138
1738.00,0.0138
1737.00,0.0141
1736.00,0.0146
1735.00,0.0149
1734.00,0.0149
1733.00,0.0149
1732.00,0.0151
1731.00,0.0155
1730.00,0.0159
1729.00,0.0162
1728.00,0.0165
1727.00,0.0168
1726.00,0.0171
1725.00,0.0175
1724.00,0.0179
1723.00,0.0182
1722.00,0.0185
1721.00,0.0190
1720.00,0.0196
1719.00,0.0202
1718.00,0.0207
1717.00,0.0213
1716.00,0.0220
1715.00,0.0225
1714.00,0.0230
1713.00,0.0235
1712.00,0.0241
1711.00,0.0247
1710.00,0.0253
1709.00,0.0260
1708.00,0.0269
1707.00,0.0279
1706.00,0.0289
1705.00,0.0299
1704.00,0.0308
1703.00,0.0317
1702.00,0.0328
1701.00,0.0345
1700.00,0.0366
1699.00,0.0384
1698.00,0.0400
1697.00,0.0419
1696.00,0.0441
1695.00,0.0462
1694.00,0.0480
1693.00,0.0498
1692.00,0.0518
1691.00,0.0538
1690.00,0.0559
1689.00,0.0580
1688.00,0.0600
1687.00,0.0618
1686.00,0.0638
1685.00,0.0666
1684.00,0.0704
1683.00,0.0738
1682.00,0.0762
1681.00,0.0781
1680.00,0.0800
1679.00,0.0818
1678.00,0.0835
1677.00,0.0855
1676.00,0.0880
1675.00,0.0911
1674.00,0.0940
1673.00,0.0963
1672.00,0.0984
1671.00,0.1008
1670.00,0.1036
1669.00,0.1069
1668.00,0.1101
1667.00,0.1125
1666.00,0.1145
1665.00,0.1164
1664.00,0.1189
1663.00,0.1220
1662.00,0.1255
1661.00,0.1286
1660.00,0.1313
1659.00,0.1336
1658.00,0.1355
1657.00,0.1368
1656.00,0.1376
1655.00,0.1385
1654.00,0.1410
1653.00,0.1462
1652.00,0.1512
1651.00,0.1535
1650.00,0.1539
1649.00,0.1539
1648.00,0.1543
1647.00,0.1559
1646.00,0.1579
1645.00,0.1595
1644.00,0.1603
1643.00,0.1605
1642.00,0.1604
1641.00,0.1603
1640.00,0.1602
1639.00,0.1601
1638.00,0.1598
1637.00,0.1598
1636.00,0.1607
1635.00,0.1620
1634.00,0.1625
1633.00,0.1619
1632.00,0.1606
1631.00,0.1591
1630.00,0.1575
1629.00,0.1560
1628.00,0.1546
1627.00,0.1533
1626.00,0.1517
1625.00,0.1499
1624.00,0.1479
1623.00,0.1460
1622.00,0.1441
1621.00,0.1418
1620.00,0.1391
1619.00,0.1361
1618.00,0.1330
1617.00,0.1300
1616.00,0.1272
1615.00,0.1246
1614.00,0.1218
1613.00,0.1188
1612.00,0.1156
1611.00,0.1124
1610.00,0.1095
1609.00,0.1067
1608.00,0.1039
1607.00,0.1013
1606.00,0.0988
1605.00,0.0963
1604.00,0.0939
1603.00,0.0916
1602.00,0.0893
1601.00,0.0871
1600.00,0.0850
1599.00,0.0829
1598.00,0.0810
1597.00,0.0791
1596.00,0.0773
1595.00,0.0755
1594.00,0.0739
1593.00,0.0722
1592.00,0.0706
1591.00,0.0691
1590.00,0.0677
1589.00,0.0665
1588.00,0.0653
1587.00,0.0642
1586.00,0.0632
1585.00,0.0623
1584.00,0.0614
1583.00,0.0607
1582.00,0.0601
1581.00,0.0595
1580.00,0.0589
1579.00,0.0584
1578.00,0.0581
1577.00,0.0580
1576.00,0.0580
1575.00,0.0582
1574.00,0.0582
1573.00,0.0581
1572.00,0.0579
1571.00,0.0579
1570.00,0.0583
1569.00,0.0588
1568.00,0.0593
1567.00,0.0597
1566.00,0.0601
1565.00,0.0605
1564.00,0.0608
1563.00,0.0609
1562.00,0.0609
1561.00,0.0610
1560.00,0.0618
1559.00,0.0642
1558.00,0.0668
1557.00,0.0680
1556.00,0.0685
1555.00,0.0689
1554.00,0.0695
1553.00,0.0700
1552.00,0.0704
1551.00,0.0709
1550.00,0.0713
1549.00,0.0718
1548.00,0.0720
1547.00,0.0720
1546.00,0.0719
1545.00,0.0717
1544.00,0.0715
1543.00,0.0714
1542.00,0.0714
1541.00,0.0713
1540.00,0.0712
1539.00,0.0707
1538.00,0.0698
1537.00,0.0687
1536.00,0.0676
1535.00,0.0665
1534.00,0.0653
1533.00,0.0642
1532.00,0.0632
1531.00,0.0622
1530.00,0.0611
1529.00,0.0598
1528.00,0.0585
1527.00,0.0573
1526.00,0.0563
1525.00,0.0553
1524.00,0.0544
1523.00,0.0534
1522.00,0.0524
1521.00,0.0513
1520.00,0.0503
1519.00,0.0495
1518.00,0.0486
1517.00,0.0474
1516.00,0.0460
1515.00,0.0446
1514.00,0.0431
1513.00,0.0416
1512.00,0.0399
1511.00,0.0382
1510.00,0.0366
1509.00,0.0353
1508.00,0.0340
1507.00,0.0328
1506.00,0.0315
1505.00,0.0301
1504.00,0.0289
1503.00,0.0277
1502.00,0.0266
1501.00,0.0255
1500.00,0.0244
1499.00,0.0235
1498.00,0.0226
1497.00,0.0217
1496.00,0.0209
1495.00,0.0202
1494.00,0.0196
1493.00,0.0191
1492.00,0.0186
1491.00,0.0181
1490.00,0.0176
1489.00,0.0171
1488.00,0.0168
1487.00,0.0165
1486.00,0.0162
1485.00,0.0160
1484.00,0.0158
1483.00,0.0158
1482.00,0.0159
1481.00,0.0161
1480.00,0.0163
1479.00,0.0166
1478.00,0.0169
1477.00,0.0174
1476.00,0.0179
1475.00,0.0186
1474.00,0.0195
1473.00,0.0206
1472.00,0.0217
1471.00,0.0225
1470.00,0.0231
1469.00,0.0235
1468.00,0.0239
1467.00,0.0242
1466.00,0.0246
1465.00,0.0251
1464.00,0.0257
1463.00,0.0262
1462.00,0.0266
1461.00,0.0269
1460.00,0.0272
1459.00,0.0275
1458.00,0.0281
1457.00,0.0291
1456.00,0.0300
1455.00,0.0304
1454.00,0.0306
1453.00,0.0306
1452.00,0.0305
1451.00,0.0303
1450.00,0.0303
1449.00,0.0303
1448.00,0.0303
1447.00,0.0303
1446.00,0.0303
1445.00,0.0302
1444.00,0.0301
1443.00,0.0301
1442.00,0.0300
1441.00,0.0300
1440.00,0.0299
1439.00,0.0298
1438.00,0.0297
1437.00,0.0297
1436.00,0.0300
1435.00,0.0303
1434.00,0.0305
1433.00,0.0306
1432.00,0.0307
1431.00,0.0309
1430.00,0.0311
1429.00,0.0314
1428.00,0.0317
1427.00,0.0319
1426.00,0.0321
1425.00,0.0324
1424.00,0.0328
1423.00,0.0331
1422.00,0.0332
1421.00,0.0332
1420.00,0.0333
1419.00,0.0336
1418.00,0.0340
1417.00,0.0344
1416.00,0.0346
1415.00,0.0345
1414.00,0.0344
1413.00,0.0342
1412.00,0.0340
1411.00,0.0338
1410.00,0.0335
1409.00,0.0332
1408.00,0.0329
1407.00,0.0326
1406.00,0.0322
1405.00,0.0319
1404.00,0.0316
1403.00,0.0313
1402.00,0.0308
1401.00,0.0303
1400.00,0.0297
1399.00,0.0291
1398.00,0.0285
1397.00,0.0280
1396.00,0.0275
1395.00,0.0270
1394.00,0.0265
1393.00,0.0261
1392.00,0.0257
1391.00,0.0254
1390.00,0.0250
1389.00,0.0248
1388.00,0.0246
1387.00,0.0246
1386.00,0.0247
1385.00,0.0249
1384.00,0.0250
1383.00,0.0251
1382.00,0.0251
1381.00,0.0252
1380.00,0.0252
1379.00,0.0252
1378.00,0.0251
1377.00,0.0250
1376.00,0.0248
1375.00,0.0246
1374.00,0.0243
1373.00,0.0240
1372.00,0.0237
1371.00,0.0233
1370.00,0.0229
1369.00,0.0224
1368.00,0.0218
1367.00,0.0212
1366.00,0.0206
1365.00,0.0199
1364.00,0.0192
1363.00,0.0185
1362.00,0.0181
1361.00,0.0178
1360.00,0.0175
1359.00,0.0172
1358.00,0.0169
1357.00,0.0166
1356.00,0.0163
1355.00,0.0159
1354.00,0.0156
1353.00,0.0153
1352.00,0.0149
1351.00,0.0145
1350.00,0.0140
1349.00,0.0136
1348.00,0.0131
1347.00,0.0127
1346.00,0.0122
1345.00,0.0118
1344.00,0.0113
1343.00,0.0109
1342.00,0.0104
1341.00,0.0099
1340.00,0.0094
1339.00,0.0091
1338.00,0.0089
1337.00,0.0087
1336.00,0.0085
1335.00,0.0082
1334.00,0.0079
1333.00,0.0076
1332.00,0.0074
1331.00,0.0072
1330.00,0.0071
1329.00,0.0070
1328.00,0.0070
1327.00,0.0070
1326.00,0.0071
1325.00,0.0071
1324.00,0.0072
1323.00,0.0073
1322.00,0.0074
1321.00,0.0075
1320.00,0.0076
1319.00,0.0077
1318.00,0.0078
1317.00,0.0079
1316.00,0.0079
1315.00,0.0080
1314.00,0.0080
1313.00,0.0081
1312.00,0.0081
1311.00,0.0081
1310.00,0.0082
1309.00,0.0083
1308.00,0.0084
1307.00,0.0085
1306.00,0.0086
1305.00,0.0089
1304.00,0.0092
1303.00,0.0095
1302.00,0.0099
1301.00,0.0104
1300.00,0.0109
1299.00,0.0115
1298.00,0.0122
1297.00,0.0130
1296.00,0.0139
1295.00,0.0148
1294.00,0.0159
1293.00,0.0170
1292.00,0.0182
1291.00,0.0195
1290.00,0.0209
1289.00,0.0225
1288.00,0.0242
1287.00,0.0260
1286.00,0.0278
1285.00,0.0298
1284.00,0.0318
1283.00,0.0339
1282.00,0.0360
1281.00,0.0382
1280.00,0.0405
1279.00,0.0429
1278.00,0.0452
1277.00,0.0476
1276.00,0.0501
1275.00,0.0525
1274.00,0.0550
1273.00,0.0575
1272.00,0.0600
1271.00,0.0625
1270.00,0.0649
1269.00,0.0672
1268.00,0.0694
1267.00,0.0716
1266.00,0.0737
1265.00,0.0758
1264.00,0.0778
1263.00,0.0798
1262.00,0.0816
1261.00,0.0833
1260.00,0.0849
1259.00,0.0865
1258.00,0.0879
1257.00,0.0894
1256.00,0.0907
1255.00,0.0920
1254.00,0.0931
1253.00,0.0942
1252.00,0.0952
1251.00,0.0962
1250.00,0.0971
1249.00,0.0979
1248.00,0.0988
1247.00,0.0996
1246.00,0.1003
1245.00,0.1011
1244.00,0.1019
1243.00,0.1027
1242.00,0.1034
1241.00,0.1042
1240.00,0.1051
1239.00,0.1061
1238.00,0.1070
1237.00,0.1080
1236.00,0.1090
1235.00,0.1100
1234.00,0.1110
1233.00,0.1120
1232.00,0.1130
1231.00,0.1139
1230.00,0.1149
1229.00,0.1158
1228.00,0.1166
1227.00,0.1174
1226.00,0.1181
1225.00,0.1187
1224.00,0.1193
1223.00,0.1198
1222.00,0.1202
1221.00,0.1204
1220.00,0.1205
1219.00,0.1203
1218.00,0.1199
1217.00,0.1193
1216.00,0.1185
1215.00,0.1175
1214.00,0.1163
1213.00,0.1149
1212.00,0.1133
1211.00,0.1115
1210.00,0.1095
1209.00,0.1074
1208.00,0.1051
1207.00,0.1027
1206.00,0.1001
1205.00,0.0975
1204.00,0.0948
1203.00,0.0921
1202.00,0.0894
1201.00,0.0868
1200.00,0.0843
1199.00,0.0820
1198.00,0.0799
1197.00,0.0779
1196.00,0.0762
1195.00,0.0747
1194.00,0.0734
1193.00,0.0722
1192.00,0.0712
1191.00,0.0703
1190.00,0.0694
1189.00,0.0685
1188.00,0.0675
1187.00,0.0666
1186.00,0.0657
1185.00,0.0649
1184.00,0.0643
1183.00,0.0638
1182.00,0.0635
1181.00,0.0634
1180.00,0.0635
1179.00,0.0638
1178.00,0.0643
1177.00,0.0649
1176.00,0.0657
1175.00,0.0666
1174.00,0.0678
1173.00,0.0692
1172.00,0.0709
1171.00,0.0726
1170.00,0.0746
1169.00,0.0767
1168.00,0.0790
1167.00,0.0813
1166.00,0.0837
1165.00,0.0861
1164.00,0.0885
1163.00,0.0908
1162.00,0.0929
1161.00,0.0950
1160.00,0.0968
1159.00,0.0983
1158.00,0.0997
1157.00,0.1008
1156.00,0.1017
1155.00,0.1024
1154.00,0.1029
1153.00,0.1032
1152.00,0.1033
1151.00,0.1032
1150.00,0.1028
1149.00,0.1022
1148.00,0.1014
1147.00,0.1004
1146.00,0.0993
1145.00,0.0981
1144.00,0.0968
1143.00,0.0955
1142.00,0.0943
1141.00,0.0932
1140.00,0.0923
1139.00,0.0916
1138.00,0.0911
1137.00,0.0908
1136.00,0.0909
1135.00,0.0914
1134.00,0.0921
1133.00,0.0931
1132.00,0.0943
1131.00,0.0955
1130.00,0.0968
1129.00,0.0980
1128.00,0.0992
1127.00,0.1001
1126.00,0.1007
1125.00,0.1011
1124.00,0.1012
1123.00,0.1011
1122.00,0.1008
1121.00,0.1004
1120.00,0.1000
1119.00,0.0996
1118.00,0.0990
1117.00,0.0985
1116.00,0.0979
1115.00,0.0973
1114.00,0.0968
1113.00,0.0963
1112.00,0.0959
1111.00,0.0955
1110.00,0.0953
1109.00,0.0952
1108.00,0.0953
1107.00,0.0956
1106.00,0.0961
1105.00,0.0969
1104.00,0.0979
1103.00,0.0991
1102.00,0.1004
1101.00,0.1020
1100.00,0.1037
1099.00,0.1055
1098.00,0.1075
1097.00,0.1096
1096.00,0.1117
1095.00,0.1138
1094.00,0.1158
1093.00,0.1180
1092.00,0.1203
1091.00,0.1226
1090.00,0.1251
1089.00,0.1278
1088.00,0.1305
1087.00,0.1334
1086.00,0.1364
1085.00,0.1395
1084.00,0.1428
1083.00,0.1462
1082.00,0.1497
1081.00,0.1534
1080.00,0.1572
1079.00,0.1610
1078.00,0.1647
1077.00,0.1682
1076.00,0.1715
1075.00,0.1745
1074.00,0.1772
1073.00,0.1795
1072.00,0.1815
1071.00,0.1831
1070.00,0.1843
1069.00,0.1851
1068.00,0.1856
1067.00,0.1857
1066.00,0.1852
1065.00,0.1845
1064.00,0.1835
1063.00,0.1823
1062.00,0.1809
1061.00,0.1796
1060.00,0.1785
1059.00,0.1776
1058.00,0.1770
1057.00,0.1768
1056.00,0.1770
1055.00,0.1774
1054.00,0.1781
1053.00,0.1791
1052.00,0.1806
1051.00,0.1823
1050.00,0.1843
1049.00,0.1866
1048.00,0.1891
1047.00,0.1916
1046.00,0.1940
1045.00,0.1964
1044.00,0.1987
1043.00,0.2008
1042.00,0.2025
1041.00,0.2040
1040.00,0.2051
1039.00,0.2058
1038.00,0.2063
1037.00,0.2068
1036.00,0.2072
1035.00,0.2076
1034.00,0.2080
1033.00,0.2086
1032.00,0.2093
1031.00,0.2100
1030.00,0.2106
1029.00,0.2109
1028.00,0.2109
1027.00,0.2104
1026.00,0.2093
1025.00,0.2078
1024.00,0.2059
1023.00,0.2035
1022.00,0.2008
1021.00,0.1978
1020.00,0.1947
1019.00,0.1914
1018.00,0.1880
1017.00,0.1845
1016.00,0.1810
1015.00,0.1773
1014.00,0.1738
1013.00,0.1704
1012.00,0.1672
1011.00,0.1643
1010.00,0.1616
1009.00,0.1591
1008.00,0.1568
1007.00,0.1547
1006.00,0.1525
1005.00,0.1502
1004.00,0.1477
1003.00,0.1449
1002.00,0.1415
1001.00,0.1378
1000.00,0.1337
999.00,0.1293
998.00,0.1249
997.00,0.1206
996.00,0.1164
995.00,0.1125
994.00,0.1087
993.00,0.1051
992.00,0.1016
991.00,0.0982
990.00,0.0949
989.00,0.0917
988.00,0.0885
987.00,0.0853
986.00,0.0822
985.00,0.0792
984.00,0.0763
983.00,0.0736
982.00,0.0711
981.00,0.0689
980.00,0.0671
979.00,0.0654
978.00,0.0639
977.00,0.0626
976.00,0.0613
975.00,0.0600
974.00,0.0586
973.00,0.0572
972.00,0.0558
971.00,0.0543
970.00,0.0525
969.00,0.0505
968.00,0.0481
967.00,0.0453
966.00,0.0422
965.00,0.0389
964.00,0.0356
963.00,0.0322
962.00,0.0289
961.00,0.0260
960.00,0.0234
959.00,0.0211
958.00,0.0191
957.00,0.0175
956.00,0.0160
955.00,0.0148
954.00,0.0138
953.00,0.0130
952.00,0.0124
951.00,0.0121
950.00,0.0120
949.00,0.0121
948.00,0.0124
947.00,0.0129
946.00,0.0137
945.00,0.0147
944.00,0.0159
943.00,0.0174
942.00,0.0193
941.00,0.0216
940.00,0.0242
939.00,0.0270
938.00,0.0300
937.00,0.0331
936.00,0.0360
935.00,0.0386
934.00,0.0409
933.00,0.0427
932.00,0.0439
931.00,0.0447
930.00,0.0451
929.00,0.0451
928.00,0.0447
927.00,0.0440
926.00,0.0429
925.00,0.0418
924.00,0.0405
923.00,0.0392
922.00,0.0379
921.00,0.0365
920.00,0.0352
919.00,0.0338
918.00,0.0324
917.00,0.0311
916.00,0.0297
915.00,0.0283
914.00,0.0268
913.00,0.0254
912.00,0.0241
911.00,0.0229
910.00,0.0218
909.00,0.0207
908.00,0.0198
907.00,0.0189
906.00,0.0181
905.00,0.0174
904.00,0.0167
903.00,0.0162
902.00,0.0157
901.00,0.0153
900.00,0.0149
899.00,0.0145
898.00,0.0142
897.00,0.0140
896.00,0.0140
895.00,0.0140
894.00,0.0141
893.00,0.0143
892.00,0.0144
891.00,0.0146
890.00,0.0146
889.00,0.0145
888.00,0.0143
887.00,0.0138
886.00,0.0132
885.00,0.0123
884.00,0.0113
883.00,0.0101
882.00,0.0088
881.00,0.0077
880.00,0.0069
879.00,0.0064
878.00,0.0062
877.00,0.0062
876.00,0.0064
875.00,0.0068
874.00,0.0071
873.00,0.0075
872.00,0.0078
871.00,0.0078
870.00,0.0075
869.00,0.0071
868.00,0.0067
867.00,0.0064
866.00,0.0063
865.00,0.0063
864.00,0.0066
863.00,0.0070
862.00,0.0077
861.00,0.0086
860.00,0.0096
859.00,0.0108
858.00,0.0122
857.00,0.0138
856.00,0.0157
855.00,0.0176
854.00,0.0196
853.00,0.0215
852.00,0.0235
851.00,0.0255
850.00,0.0273
849.00,0.0288
848.00,0.0301
847.00,0.0310
846.00,0.0316
845.00,0.0318
844.00,0.0315
843.00,0.0308
842.00,0.0300
841.00,0.0290
840.00,0.0281
839.00,0.0273
838.00,0.0265
837.00,0.0257
836.00,0.0250
835.00,0.0242
834.00,0.0234
833.00,0.0225
832.00,0.0216
831.00,0.0206
830.00,0.0197
829.00,0.0187
828.00,0.0177
827.00,0.0166
826.00,0.0157
825.00,0.0149
824.00,0.0143
823.00,0.0138
822.00,0.0132
821.00,0.0127
820.00,0.0121
819.00,0.0116
818.00,0.0113
817.00,0.0110
816.00,0.0109
815.00,0.0108
814.00,0.0108
813.00,0.0109
812.00,0.0110
811.00,0.0111
810.00,0.0114
809.00,0.0116
808.00,0.0118
807.00,0.0118
806.00,0.0117
805.00,0.0116
804.00,0.0115
803.00,0.0113
802.00,0.0110
801.00,0.0107
800.00,0.0103
799.00,0.0099
798.00,0.0095
797.00,0.0091
796.00,0.0087
795.00,0.0082
794.00,0.0078
793.00,0.0074
792.00,0.0071
791.00,0.0070
790.00,0.0068
789.00,0.0068
788.00,0.0068
787.00,0.0070
786.00,0.0071
785.00,0.0073
784.00,0.0075
783.00,0.0077
782.00,0.0081
781.00,0.0086
780.00,0.0092
779.00,0.0099
778.00,0.0105
777.00,0.0110
776.00,0.0115
775.00,0.0117
774.00,0.0119
773.00,0.0119
772.00,0.0118
771.00,0.0116
770.00,0.0113
769.00,0.0108
768.00,0.0102
767.00,0.0096
766.00,0.0089
765.00,0.0084
764.00,0.0080
763.00,0.0076
762.00,0.0074
761.00,0.0072
760.00,0.0070
759.00,0.0067
758.00,0.0065
757.00,0.0065
756.00,0.0066
755.00,0.0069
754.00,0.0073
753.00,0.0079
752.00,0.0086
751.00,0.0094
750.00,0.0103
749.00,0.0114
748.00,0.0125
747.00,0.0136
746.00,0.0146
745.00,0.0155
744.00,0.0162
743.00,0.0169
742.00,0.0175
741.00,0.0181
740.00,0.0187
739.00,0.0193
738.00,0.0197
737.00,0.0201
736.00,0.0205
735.00,0.0209
734.00,0.0211
733.00,0.0213
732.00,0.0216
731.00,0.0218
730.00,0.0221
729.00,0.0223
728.00,0.0226
727.00,0.0230
726.00,0.0233
725.00,0.0236
724.00,0.0238
723.00,0.0237
722.00,0.0236
721.00,0.0233
720.00,0.0230
719.00,0.0226
718.00,0.0221
717.00,0.0218
716.00,0.0215
715.00,0.0213
714.00,0.0213
713.00,0.0213
712.00,0.0215
711.00,0.0219
710.00,0.0224
709.00,0.0231
708.00,0.0238
707.00,0.0245
706.00,0.0252
705.00,0.0259
704.00,0.0265
703.00,0.0269
702.00,0.0273
701.00,0.0275
700.00,0.0275
699.00,0.0272
698.00,0.0267
697.00,0.0259
696.00,0.0250
695.00,0.0240
694.00,0.0230
693.00,0.0220
692.00,0.0209
691.00,0.0198
690.00,0.0187
689.00,0.0177
688.00,0.0170
687.00,0.0163
686.00,0.0156
685.00,0.0149
684.00,0.0142
683.00,0.0135
682.00,0.0130
681.00,0.0126
680.00,0.0126
679.00,0.0126
678.00,0.0127
677.00,0.0129
676.00,0.0131
675.00,0.0135
674.00,0.0142
673.00,0.0150
672.00,0.0155
671.00,0.0153
670.00,0.0147
669.00,0.0147
668.00,0.0160
667.00,0.0176
666.00,0.0179
665.00,0.0170
664.00,0.0157
663.00,0.0148
662.00,0.0143
661.00,0.0138
660.00,0.0133
659.00,0.0127
658.00,0.0122
657.00,0.0119
656.00,0.0117
655.00,0.0115
654.00,0.0112
653.00,0.0108
652.00,0.0103
651.00,0.0097
650.00,0.0093
649.00,0.0090
648.00,0.0088
647.00,0.0086
646.00,0.0083
645.00,0.0079
644.00,0.0077
643.00,0.0075
642.00,0.0073
641.00,0.0071
640.00,0.0069
639.00,0.0068
638.00,0.0066
637.00,0.0066
636.00,0.0070
635.00,0.0077
634.00,0.0085
633.00,0.0094
632.00,0.0104
631.00,0.0114
630.00,0.0124
629.00,0.0136
628.00,0.0150
627.00,0.0165
626.00,0.0181
625.00,0.0198
624.00,0.0217
623.00,0.0234
622.00,0.0250
621.00,0.0264
620.00,0.0279
619.00,0.0293
618.00,0.0307
617.00,0.0320
616.00,0.0332
615.00,0.0341
614.00,0.0346
613.00,0.0350
612.00,0.0355
611.00,0.0361
610.00,0.0367
609.00,0.0372
608.00,0.0379
607.00,0.0387
606.00,0.0395
605.00,0.0403
604.00,0.0410
603.00,0.0416
602.00,0.0420
601.00,0.0424
600.00,0.0428
599.00,0.0431
598.00,0.0431
597.00,0.0429
596.00,0.0428
595.00,0.0426
594.00,0.0422
593.00,0.0420
592.00,0.0421
591.00,0.0425
590.00,0.0431
589.00,0.0438
588.00,0.0446
587.00,0.0453
586.00,0.0460
585.00,0.0468
584.00,0.0478
583.00,0.0490
582.00,0.0501
581.00,0.0509
580.00,0.0516
579.00,0.0521
578.00,0.0524
577.00,0.0525
576.00,0.0526
575.00,0.0525
574.00,0.0518
573.00,0.0508
572.00,0.0496
571.00,0.0485
570.00,0.0474
569.00,0.0463
568.00,0.0451
567.00,0.0436
566.00,0.0420
565.00,0.0408
564.00,0.0401
563.00,0.0395
562.00,0.0389
561.00,0.0381
560.00,0.0374
559.00,0.0366
558.00,0.0354
557.00,0.0341
556.00,0.0333
555.00,0.0329
554.00,0.0326
553.00,0.0323
552.00,0.0317
551.00,0.0308
550.00,0.0299
549.00,0.0293
548.00,0.0294
547.00,0.0299
546.00,0.0302
545.00,0.0301
544.00,0.0299
543.00,0.0297
542.00,0.0296
541.00,0.0298
540.00,0.0302
539.00,0.0302
538.00,0.0297
537.00,0.0290
536.00,0.0287
535.00,0.0286
534.00,0.0283
533.00,0.0278
532.00,0.0273
531.00,0.0269
530.00,0.0265
529.00,0.0262
528.00,0.0258
527.00,0.0255
526.00,0.0251
525.00,0.0249
524.00,0.0248
523.00,0.0245
522.00,0.0238
521.00,0.0228
520.00,0.0219
519.00,0.0214
518.00,0.0214
517.00,0.0216
516.00,0.0217
515.00,0.0212
514.00,0.0201
513.00,0.0187
512.00,0.0175
511.00,0.0166
510.00,0.0156
509.00,0.0145
508.00,0.0132
507.00,0.0119
506.00,0.0107
505.00,0.0102
504.00,0.0101
503.00,0.0100
502.00,0.0095
501.00,0.0090
500.00,0.0085
499.00,0.0079
498.00,0.0075
497.00,0.0077
496.00,0.0085
495.00,0.0090
494.00,0.0087
493.00,0.0076
492.00,0.0067
491.00,0.0064
490.00,0.0065
489.00,0.0068
488.00,0.0072
487.00,0.0073
486.00,0.0071
485.00,0.0069
484.00,0.0072
483.00,0.0074
482.00,0.0073
481.00,0.0072
480.00,0.0077
479.00,0.0084
478.00,0.0085
477.00,0.0079
476.00,0.0073
475.00,0.0071
474.00,0.0076
473.00,0.0091
472.00,0.0115
471.00,0.0134
470.00,0.0141
469.00,0.0142
468.00,0.0144
467.00,0.0147
466.00,0.0143
465.00,0.0130
464.00,0.0117
463.00,0.0105
462.00,0.0095
461.00,0.0090
460.00,0.0091
459.00,0.0097
458.00,0.0100
457.00,0.0099
456.00,0.0091
455.00,0.0076
454.00,0.0056
453.00,0.0044
452.00,0.0043
451.00,0.0045
450.00,0.0040
