Created as New Dataset,Sample 006 By Administrator Date Monday, June 09 2025
cm-1,A
4000.00,0.0042
3999.00,0.0042
3998.00,0.0043
3997.00,0.0043
3996.00,0.0043
3995.00,0.0042
3994.00,0.0042
3993.00,0.0042
3992.00,0.0042
3991.00,0.0042
3990.00,0.0043
3989.00,0.0043
3988.00,0.0043
3987.00,0.0044
3986.00,0.0044
3985.00,0.0044
3984.00,0.0043
3983.00,0.0043
3982.00,0.0043
3981.00,0.0043
3980.00,0.0043
3979.00,0.0044
3978.00,0.0044
3977.00,0.0045
3976.00,0.0045
3975.00,0.0045
3974.00,0.0044
3973.00,0.0044
3972.00,0.0044
3971.00,0.0044
3970.00,0.0043
3969.00,0.0043
3968.00,0.0043
3967.00,0.0044
3966.00,0.0044
3965.00,0.0044
3964.00,0.0044
3963.00,0.0045
3962.00,0.0045
3961.00,0.0045
3960.00,0.0045
3959.00,0.0045
3958.00,0.0045
3957.00,0.0045
3956.00,0.0045
3955.00,0.0045
3954.00,0.0045
3953.00,0.0046
3952.00,0.0046
3951.00,0.0046
3950.00,0.0046
3949.00,0.0047
3948.00,0.0047
3947.00,0.0047
3946.00,0.0048
3945.00,0.0048
3944.00,0.0047
3943.00,0.0046
3942.00,0.0045
3941.00,0.0044
3940.00,0.0044
3939.00,0.0045
3938.00,0.0045
3937.00,0.0045
3936.00,0.0046
3935.00,0.0047
3934.00,0.0048
3933.00,0.0049
3932.00,0.0049
3931.00,0.0048
3930.00,0.0047
3929.00,0.0047
3928.00,0.0047
3927.00,0.0047
3926.00,0.0047
3925.00,0.0046
3924.00,0.0046
3923.00,0.0046
3922.00,0.0047
3921.00,0.0049
3920.00,0.0050
3919.00,0.0050
3918.00,0.0050
3917.00,0.0049
3916.00,0.0048
3915.00,0.0047
3914.00,0.0046
3913.00,0.0045
3912.00,0.0045
3911.00,0.0044
3910.00,0.0043
3909.00,0.0044
3908.00,0.0045
3907.00,0.0046
3906.00,0.0048
3905.00,0.0051
3904.00,0.0053
3903.00,0.0055
3902.00,0.0057
3901.00,0.0058
3900.00,0.0057
3899.00,0.0055
3898.00,0.0053
3897.00,0.0052
3896.00,0.0051
3895.00,0.0050
3894.00,0.0050
3893.00,0.0049
3892.00,0.0049
3891.00,0.0048
3890.00,0.0048
3889.00,0.0049
3888.00,0.0051
3887.00,0.0053
3886.00,0.0053
3885.00,0.0053
3884.00,0.0052
3883.00,0.0052
3882.00,0.0053
3881.00,0.0052
3880.00,0.0050
3879.00,0.0049
3878.00,0.0049
3877.00,0.0050
3876.00,0.0051
3875.00,0.0051
3874.00,0.0050
3873.00,0.0050
3872.00,0.0052
3871.00,0.0053
3870.00,0.0054
3869.00,0.0053
3868.00,0.0053
3867.00,0.0054
3866.00,0.0055
3865.00,0.0055
3864.00,0.0054
3863.00,0.0052
3862.00,0.0051
3861.00,0.0051
3860.00,0.0051
3859.00,0.0050
3858.00,0.0048
3857.00,0.0047
3856.00,0.0047
3855.00,0.0049
3854.00,0.0051
3853.00,0.0053
3852.00,0.0054
3851.00,0.0054
3850.00,0.0054
3849.00,0.0054
3848.00,0.0053
3847.00,0.0052
3846.00,0.0052
3845.00,0.0051
3844.00,0.0051
3843.00,0.0051
3842.00,0.0052
3841.00,0.0053
3840.00,0.0054
3839.00,0.0054
3838.00,0.0054
3837.00,0.0055
3836.00,0.0055
3835.00,0.0055
3834.00,0.0055
3833.00,0.0054
3832.00,0.0054
3831.00,0.0053
3830.00,0.0052
3829.00,0.0052
3828.00,0.0051
3827.00,0.0050
3826.00,0.0049
3825.00,0.0048
3824.00,0.0049
3823.00,0.0052
3822.00,0.0054
3821.00,0.0054
3820.00,0.0054
3819.00,0.0054
3818.00,0.0055
3817.00,0.0056
3816.00,0.0055
3815.00,0.0053
3814.00,0.0051
3813.00,0.0050
3812.00,0.0049
3811.00,0.0048
3810.00,0.0047
3809.00,0.0047
3808.00,0.0048
3807.00,0.0048
3806.00,0.0049
3805.00,0.0051
3804.00,0.0053
3803.00,0.0054
3802.00,0.0055
3801.00,0.0055
3800.00,0.0054
3799.00,0.0055
3798.00,0.0055
3797.00,0.0054
3796.00,0.0052
3795.00,0.0050
3794.00,0.0049
3793.00,0.0049
3792.00,0.0048
3791.00,0.0047
3790.00,0.0047
3789.00,0.0046
3788.00,0.0047
3787.00,0.0047
3786.00,0.0047
3785.00,0.0047
3784.00,0.0048
3783.00,0.0049
3782.00,0.0050
3781.00,0.0050
3780.00,0.0050
3779.00,0.0049
3778.00,0.0048
3777.00,0.0048
3776.00,0.0049
3775.00,0.0049
3774.00,0.0049
3773.00,0.0049
3772.00,0.0050
3771.00,0.0051
3770.00,0.0052
3769.00,0.0053
3768.00,0.0054
3767.00,0.0055
3766.00,0.0056
3765.00,0.0055
3764.00,0.0055
3763.00,0.0056
3762.00,0.0057
3761.00,0.0058
3760.00,0.0058
3759.00,0.0058
3758.00,0.0058
3757.00,0.0058
3756.00,0.0059
3755.00,0.0061
3754.00,0.0063
3753.00,0.0064
3752.00,0.0066
3751.00,0.0067
3750.00,0.0070
3749.00,0.0072
3748.00,0.0073
3747.00,0.0074
3746.00,0.0075
3745.00,0.0076
3744.00,0.0075
3743.00,0.0073
3742.00,0.0072
3741.00,0.0071
3740.00,0.0072
3739.00,0.0073
3738.00,0.0075
3737.00,0.0077
3736.00,0.0078
3735.00,0.0076
3734.00,0.0075
3733.00,0.0074
3732.00,0.0074
3731.00,0.0073
3730.00,0.0072
3729.00,0.0072
3728.00,0.0072
3727.00,0.0072
3726.00,0.0072
3725.00,0.0071
3724.00,0.0071
3723.00,0.0071
3722.00,0.0071
3721.00,0.0071
3720.00,0.0070
3719.00,0.0070
3718.00,0.0070
3717.00,0.0070
3716.00,0.0071
3715.00,0.0072
3714.00,0.0075
3713.00,0.0077
3712.00,0.0079
3711.00,0.0080
3710.00,0.0081
3709.00,0.0082
3708.00,0.0083
3707.00,0.0083
3706.00,0.0083
3705.00,0.0083
3704.00,0.0084
3703.00,0.0084
3702.00,0.0085
3701.00,0.0085
3700.00,0.0085
3699.00,0.0086
3698.00,0.0088
3697.00,0.0089
3696.00,0.0091
3695.00,0.0093
3694.00,0.0095
3693.00,0.0098
3692.00,0.0100
3691.00,0.0102
3690.00,0.0104
3689.00,0.0108
3688.00,0.0112
3687.00,0.0115
3686.00,0.0117
3685.00,0.0119
3684.00,0.0120
3683.00,0.0122
3682.00,0.0124
3681.00,0.0126
3680.00,0.0128
3679.00,0.0131
3678.00,0.0135
3677.00,0.0142
3676.00,0.0148
3675.00,0.0154
3674.00,0.0160
3673.00,0.0166
3672.00,0.0171
3671.00,0.0176
3670.00,0.0179
3669.00,0.0180
3668.00,0.0183
3667.00,0.0186
3666.00,0.0189
3665.00,0.0192
3664.00,0.0195
3663.00,0.0198
3662.00,0.0202
3661.00,0.0205
3660.00,0.0210
3659.00,0.0215
3658.00,0.0222
3657.00,0.0230
3656.00,0.0238
3655.00,0.0245
3654.00,0.0252
3653.00,0.0259
3652.00,0.0267
3651.00,0.0276
3650.00,0.0285
3649.00,0.0295
3648.00,0.0306
3647.00,0.0314
3646.00,0.0321
3645.00,0.0325
3644.00,0.0329
3643.00,0.0333
3642.00,0.0337
3641.00,0.0341
3640.00,0.0347
3639.00,0.0353
3638.00,0.0360
3637.00,0.0367
3636.00,0.0375
3635.00,0.0383
3634.00,0.0390
3633.00,0.0397
3632.00,0.0404
3631.00,0.0413
3630.00,0.0425
3629.00,0.0437
3628.00,0.0449
3627.00,0.0459
3626.00,0.0467
3625.00,0.0474
3624.00,0.0480
3623.00,0.0485
3622.00,0.0490
3621.00,0.0496
3620.00,0.0504
3619.00,0.0513
3618.00,0.0523
3617.00,0.0533
3616.00,0.0542
3615.00,0.0551
3614.00,0.0558
3613.00,0.0565
3612.00,0.0572
3611.00,0.0581
3610.00,0.0590
3609.00,0.0598
3608.00,0.0606
3607.00,0.0613
3606.00,0.0619
3605.00,0.0626
3604.00,0.0632
3603.00,0.0638
3602.00,0.0645
3601.00,0.0652
3600.00,0.0659
3599.00,0.0668
3598.00,0.0677
3597.00,0.0686
3596.00,0.0695
3595.00,0.0703
3594.00,0.0712
3593.00,0.0719
3592.00,0.0727
3591.00,0.0735
3590.00,0.0744
3589.00,0.0753
3588.00,0.0763
3587.00,0.0774
3586.00,0.0784
3585.00,0.0793
3584.00,0.0801
3583.00,0.0808
3582.00,0.0814
3581.00,0.0820
3580.00,0.0826
3579.00,0.0833
3578.00,0.0841
3577.00,0.0849
3576.00,0.0858
3575.00,0.0867
3574.00,0.0877
3573.00,0.0886
3572.00,0.0895
3571.00,0.0905
3570.00,0.0915
3569.00,0.0925
3568.00,0.0937
3567.00,0.0949
3566.00,0.0961
3565.00,0.0973
3564.00,0.0983
3563.00,0.0993
3562.00,0.1001
3561.00,0.1009
3560.00,0.1016
3559.00,0.1024
3558.00,0.1033
3557.00,0.1042
3556.00,0.1051
3555.00,0.1060
3554.00,0.1070
3553.00,0.1081
3552.00,0.1091
3551.00,0.1102
3550.00,0.1113
3549.00,0.1124
3548.00,0.1135
3547.00,0.1145
3546.00,0.1155
3545.00,0.1164
3544.00,0.1174
3543.00,0.1182
3542.00,0.1191
3541.00,0.1198
3540.00,0.1205
3539.00,0.1213
3538.00,0.1221
3537.00,0.1229
3536.00,0.1237
3535.00,0.1245
3534.00,0.1253
3533.00,0.1260
3532.00,0.1267
3531.00,0.1274
3530.00,0.1282
3529.00,0.1290
3528.00,0.1298
3527.00,0.1307
3526.00,0.1316
3525.00,0.1325
3524.00,0.1332
3523.00,0.1339
3522.00,0.1345
3521.00,0.1351
3520.00,0.1357
3519.00,0.1364
3518.00,0.1370
3517.00,0.1377
3516.00,0.1384
3515.00,0.1392
3514.00,0.1399
3513.00,0.1406
3512.00,0.1413
3511.00,0.1419
3510.00,0.1427
3509.00,0.1435
3508.00,0.1443
3507.00,0.1451
3506.00,0.1460
3505.00,0.1467
3504.00,0.1475
3503.00,0.1483
3502.00,0.1491
3501.00,0.1499
3500.00,0.1507
3499.00,0.1514
3498.00,0.1521
3497.00,0.1528
3496.00,0.1535
3495.00,0.1543
3494.00,0.1551
3493.00,0.1558
3492.00,0.1566
3491.00,0.1573
3490.00,0.1581
3489.00,0.1589
3488.00,0.1597
3487.00,0.1605
3486.00,0.1612
3485.00,0.1620
3484.00,0.1628
3483.00,0.1636
3482.00,0.1644
3481.00,0.1653
3480.00,0.1661
3479.00,0.1668
3478.00,0.1675
3477.00,0.1682
3476.00,0.1688
3475.00,0.1696
3474.00,0.1704
3473.00,0.1712
3472.00,0.1721
3471.00,0.1730
3470.00,0.1738
3469.00,0.1746
3468.00,0.1754
3467.00,0.1762
3466.00,0.1769
3465.00,0.1776
3464.00,0.1783
3463.00,0.1790
3462.00,0.1797
3461.00,0.1805
3460.00,0.1814
3459.00,0.1822
3458.00,0.1830
3457.00,0.1837
3456.00,0.1845
3455.00,0.1852
3454.00,0.1859
3453.00,0.1867
3452.00,0.1874
3451.00,0.1881
3450.00,0.1888
3449.00,0.1896
3448.00,0.1904
3447.00,0.1912
3446.00,0.1920
3445.00,0.1928
3444.00,0.1936
3443.00,0.1944
3442.00,0.1952
3441.00,0.1960
3440.00,0.1969
3439.00,0.1977
3438.00,0.1986
3437.00,0.1994
3436.00,0.2001
3435.00,0.2009
3434.00,0.2015
3433.00,0.2023
3432.00,0.2030
3431.00,0.2038
3430.00,0.2047
3429.00,0.2055
3428.00,0.2063
3427.00,0.2070
3426.00,0.2078
3425.00,0.2086
3424.00,0.2093
3423.00,0.2101
3422.00,0.2109
3421.00,0.2117
3420.00,0.2126
3419.00,0.2134
3418.00,0.2142
3417.00,0.2150
3416.00,0.2158
3415.00,0.2167
3414.00,0.2175
3413.00,0.2183
3412.00,0.2190
3411.00,0.2197
3410.00,0.2204
3409.00,0.2210
3408.00,0.2217
3407.00,0.2223
3406.00,0.2230
3405.00,0.2237
3404.00,0.2243
3403.00,0.2250
3402.00,0.2255
3401.00,0.2260
3400.00,0.2263
3399.00,0.2267
3398.00,0.2270
3397.00,0.2274
3396.00,0.2278
3395.00,0.2282
3394.00,0.2286
3393.00,0.2290
3392.00,0.2293
3391.00,0.2295
3390.00,0.2297
3389.00,0.2298
3388.00,0.2299
3387.00,0.2300
3386.00,0.2302
3385.00,0.2303
3384.00,0.2306
3383.00,0.2308
3382.00,0.2310
3381.00,0.2312
3380.00,0.2313
3379.00,0.2314
3378.00,0.2316
3377.00,0.2317
3376.00,0.2318
3375.00,0.2318
3374.00,0.2319
3373.00,0.2320
3372.00,0.2322
3371.00,0.2323
3370.00,0.2325
3369.00,0.2326
3368.00,0.2326
3367.00,0.2326
3366.00,0.2325
3365.00,0.2325
3364.00,0.2325
3363.00,0.2325
3362.00,0.2326
3361.00,0.2326
3360.00,0.2326
3359.00,0.2326
3358.00,0.2326
3357.00,0.2325
3356.00,0.2325
3355.00,0.2325
3354.00,0.2325
3353.00,0.2325
3352.00,0.2326
3351.00,0.2325
3350.00,0.2324
3349.00,0.2323
3348.00,0.2322
3347.00,0.2321
3346.00,0.2320
3345.00,0.2320
3344.00,0.2320
3343.00,0.2320
3342.00,0.2319
3341.00,0.2318
3340.00,0.2317
3339.00,0.2316
3338.00,0.2314
3337.00,0.2313
3336.00,0.2312
3335.00,0.2310
3334.00,0.2309
3333.00,0.2308
3332.00,0.2307
3331.00,0.2305
3330.00,0.2303
3329.00,0.2302
3328.00,0.2300
3327.00,0.2299
3326.00,0.2299
3325.00,0.2298
3324.00,0.2297
3323.00,0.2296
3322.00,0.2295
3321.00,0.2293
3320.00,0.2292
3319.00,0.2291
3318.00,0.2289
3317.00,0.2288
3316.00,0.2286
3315.00,0.2285
3314.00,0.2284
3313.00,0.2284
3312.00,0.2283
3311.00,0.2282
3310.00,0.2281
3309.00,0.2279
3308.00,0.2278
3307.00,0.2277
3306.00,0.2276
3305.00,0.2275
3304.00,0.2275
3303.00,0.2274
3302.00,0.2273
3301.00,0.2272
3300.00,0.2270
3299.00,0.2269
3298.00,0.2268
3297.00,0.2266
3296.00,0.2265
3295.00,0.2264
3294.00,0.2263
3293.00,0.2262
3292.00,0.2261
3291.00,0.2260
3290.00,0.2259
3289.00,0.2257
3288.00,0.2256
3287.00,0.2255
3286.00,0.2254
3285.00,0.2252
3284.00,0.2250
3283.00,0.2248
3282.00,0.2246
3281.00,0.2244
3280.00,0.2241
3279.00,0.2239
3278.00,0.2237
3277.00,0.2235
3276.00,0.2232
3275.00,0.2230
3274.00,0.2227
3273.00,0.2224
3272.00,0.2221
3271.00,0.2217
3270.00,0.2214
3269.00,0.2211
3268.00,0.2208
3267.00,0.2204
3266.00,0.2200
3265.00,0.2196
3264.00,0.2192
3263.00,0.2188
3262.00,0.2184
3261.00,0.2179
3260.00,0.2174
3259.00,0.2170
3258.00,0.2165
3257.00,0.2160
3256.00,0.2156
3255.00,0.2151
3254.00,0.2146
3253.00,0.2142
3252.00,0.2137
3251.00,0.2132
3250.00,0.2128
3249.00,0.2123
3248.00,0.2118
3247.00,0.2112
3246.00,0.2107
3245.00,0.2101
3244.00,0.2096
3243.00,0.2091
3242.00,0.2086
3241.00,0.2081
3240.00,0.2075
3239.00,0.2069
3238.00,0.2063
3237.00,0.2057
3236.00,0.2050
3235.00,0.2045
3234.00,0.2039
3233.00,0.2034
3232.00,0.2028
3231.00,0.2021
3230.00,0.2015
3229.00,0.2009
3228.00,0.2002
3227.00,0.1996
3226.00,0.1990
3225.00,0.1984
3224.00,0.1978
3223.00,0.1972
3222.00,0.1965
3221.00,0.1959
3220.00,0.1952
3219.00,0.1946
3218.00,0.1939
3217.00,0.1932
3216.00,0.1926
3215.00,0.1919
3214.00,0.1912
3213.00,0.1905
3212.00,0.1898
3211.00,0.1890
3210.00,0.1883
3209.00,0.1876
3208.00,0.1869
3207.00,0.1861
3206.00,0.1854
3205.00,0.1846
3204.00,0.1839
3203.00,0.1831
3202.00,0.1823
3201.00,0.1815
3200.00,0.1807
3199.00,0.1800
3198.00,0.1792
3197.00,0.1785
3196.00,0.1777
3195.00,0.1769
3194.00,0.1762
3193.00,0.1754
3192.00,0.1745
3191.00,0.1737
3190.00,0.1728
3189.00,0.1720
3188.00,0.1711
3187.00,0.1703
3186.00,0.1694
3185.00,0.1686
3184.00,0.1678
3183.00,0.1669
3182.00,0.1661
3181.00,0.1652
3180.00,0.1643
3179.00,0.1635
3178.00,0.1626
3177.00,0.1617
3176.00,0.1608
3175.00,0.1599
3174.00,0.1590
3173.00,0.1580
3172.00,0.1572
3171.00,0.1563
3170.00,0.1555
3169.00,0.1546
3168.00,0.1538
3167.00,0.1529
3166.00,0.1519
3165.00,0.1510
3164.00,0.1501
3163.00,0.1492
3162.00,0.1483
3161.00,0.1474
3160.00,0.1465
3159.00,0.1456
3158.00,0.1448
3157.00,0.1439
3156.00,0.1431
3155.00,0.1422
3154.00,0.1414
3153.00,0.1406
3152.00,0.1397
3151.00,0.1389
3150.00,0.1380
3149.00,0.1371
3148.00,0.1363
3147.00,0.1354
3146.00,0.1346
3145.00,0.1338
3144.00,0.1330
3143.00,0.1321
3142.00,0.1313
3141.00,0.1304
3140.00,0.1296
3139.00,0.1289
3138.00,0.1281
3137.00,0.1273
3136.00,0.1265
3135.00,0.1257
3134.00,0.1249
3133.00,0.1242
3132.00,0.1235
3131.00,0.1227
3130.00,0.1220
3129.00,0.1213
3128.00,0.1206
3127.00,0.1198
3126.00,0.1191
3125.00,0.1184
3124.00,0.1177
3123.00,0.1170
3122.00,0.1163
3121.00,0.1156
3120.00,0.1149
3119.00,0.1142
3118.00,0.1136
3117.00,0.1129
3116.00,0.1123
3115.00,0.1116
3114.00,0.1111
3113.00,0.1105
3112.00,0.1099
3111.00,0.1093
3110.00,0.1087
3109.00,0.1081
3108.00,0.1075
3107.00,0.1069
3106.00,0.1064
3105.00,0.1059
3104.00,0.1054
3103.00,0.1048
3102.00,0.1043
3101.00,0.1037
3100.00,0.1032
3099.00,0.1027
3098.00,0.1023
3097.00,0.1018
3096.00,0.1013
3095.00,0.1008
3094.00,0.1003
3093.00,0.0997
3092.00,0.0991
3091.00,0.0986
3090.00,0.0981
3089.00,0.0976
3088.00,0.0971
3087.00,0.0966
3086.00,0.0962
3085.00,0.0957
3084.00,0.0953
3083.00,0.0948
3082.00,0.0944
3081.00,0.0940
3080.00,0.0935
3079.00,0.0931
3078.00,0.0927
3077.00,0.0923
3076.00,0.0919
3075.00,0.0914
3074.00,0.0909
3073.00,0.0904
3072.00,0.0899
3071.00,0.0894
3070.00,0.0890
3069.00,0.0885
3068.00,0.0880
3067.00,0.0875
3066.00,0.0871
3065.00,0.0867
3064.00,0.0862
3063.00,0.0857
3062.00,0.0852
3061.00,0.0846
3060.00,0.0841
3059.00,0.0835
3058.00,0.0830
3057.00,0.0825
3056.00,0.0819
3055.00,0.0814
3054.00,0.0808
3053.00,0.0803
3052.00,0.0798
3051.00,0.0793
3050.00,0.0788
3049.00,0.0783
3048.00,0.0778
3047.00,0.0772
3046.00,0.0767
3045.00,0.0761
3044.00,0.0756
3043.00,0.0751
3042.00,0.0746
3041.00,0.0741
3040.00,0.0736
3039.00,0.0731
3038.00,0.0726
3037.00,0.0721
3036.00,0.0716
3035.00,0.0711
3034.00,0.0707
3033.00,0.0702
3032.00,0.0698
3031.00,0.0694
3030.00,0.0689
3029.00,0.0685
3028.00,0.0680
3027.00,0.0676
3026.00,0.0671
3025.00,0.0666
3024.00,0.0662
3023.00,0.0657
3022.00,0.0653
3021.00,0.0649
3020.00,0.0645
3019.00,0.0641
3018.00,0.0638
3017.00,0.0634
3016.00,0.0631
3015.00,0.0627
3014.00,0.0623
3013.00,0.0619
3012.00,0.0616
3011.00,0.0613
3010.00,0.0611
3009.00,0.0608
3008.00,0.0605
3007.00,0.0601
3006.00,0.0598
3005.00,0.0595
3004.00,0.0592
3003.00,0.0589
3002.00,0.0587
3001.00,0.0584
3000.00,0.0581
2999.00,0.0579
2998.00,0.0577
2997.00,0.0575
2996.00,0.0573
2995.00,0.0571
2994.00,0.0570
2993.00,0.0569
2992.00,0.0569
2991.00,0.0568
2990.00,0.0568
2989.00,0.0567
2988.00,0.0567
2987.00,0.0568
2986.00,0.0568
2985.00,0.0568
2984.00,0.0569
2983.00,0.0569
2982.00,0.0570
2981.00,0.0571
2980.00,0.0572
2979.00,0.0573
2978.00,0.0574
2977.00,0.0575
2976.00,0.0577
2975.00,0.0578
2974.00,0.0580
2973.00,0.0581
2972.00,0.0583
2971.00,0.0584
2970.00,0.0585
2969.00,0.0586
2968.00,0.0587
2967.00,0.0589
2966.00,0.0590
2965.00,0.0591
2964.00,0.0591
2963.00,0.0592
2962.00,0.0592
2961.00,0.0591
2960.00,0.0590
2959.00,0.0589
2958.00,0.0588
2957.00,0.0586
2956.00,0.0583
2955.00,0.0580
2954.00,0.0577
2953.00,0.0575
2952.00,0.0572
2951.00,0.0570
2950.00,0.0568
2949.00,0.0566
2948.00,0.0564
2947.00,0.0562
2946.00,0.0562
2945.00,0.0561
2944.00,0.0562
2943.00,0.0563
2942.00,0.0564
2941.00,0.0566
2940.00,0.0567
2939.00,0.0569
2938.00,0.0570
2937.00,0.0570
2936.00,0.0571
2935.00,0.0572
2934.00,0.0572
2933.00,0.0572
2932.00,0.0572
2931.00,0.0572
2930.00,0.0572
2929.00,0.0572
2928.00,0.0571
2927.00,0.0570
2926.00,0.0569
2925.00,0.0568
2924.00,0.0566
2923.00,0.0563
2922.00,0.0560
2921.00,0.0556
2920.00,0.0552
2919.00,0.0547
2918.00,0.0542
2917.00,0.0536
2916.00,0.0530
2915.00,0.0523
2914.00,0.0516
2913.00,0.0510
2912.00,0.0504
2911.00,0.0498
2910.00,0.0493
2909.00,0.0487
2908.00,0.0483
2907.00,0.0478
2906.00,0.0474
2905.00,0.0470
2904.00,0.0466
2903.00,0.0462
2902.00,0.0459
2901.00,0.0455
2900.00,0.0452
2899.00,0.0448
2898.00,0.0444
2897.00,0.0441
2896.00,0.0438
2895.00,0.0434
2894.00,0.0431
2893.00,0.0429
2892.00,0.0426
2891.00,0.0423
2890.00,0.0421
2889.00,0.0418
2888.00,0.0416
2887.00,0.0413
2886.00,0.0411
2885.00,0.0410
2884.00,0.0408
2883.00,0.0407
2882.00,0.0406
2881.00,0.0404
2880.00,0.0403
2879.00,0.0402
2878.00,0.0401
2877.00,0.0399
2876.00,0.0397
2875.00,0.0395
2874.00,0.0393
2873.00,0.0391
2872.00,0.0389
2871.00,0.0386
2870.00,0.0383
2869.00,0.0380
2868.00,0.0377
2867.00,0.0373
2866.00,0.0369
2865.00,0.0366
2864.00,0.0364
2863.00,0.0362
2862.00,0.0360
2861.00,0.0359
2860.00,0.0359
2859.00,0.0358
2858.00,0.0358
2857.00,0.0357
2856.00,0.0357
2855.00,0.0356
2854.00,0.0356
2853.00,0.0355
2852.00,0.0353
2851.00,0.0350
2850.00,0.0346
2849.00,0.0341
2848.00,0.0336
2847.00,0.0330
2846.00,0.0324
2845.00,0.0319
2844.00,0.0313
2843.00,0.0308
2842.00,0.0303
2841.00,0.0299
2840.00,0.0295
2839.00,0.0292
2838.00,0.0289
2837.00,0.0286
2836.00,0.0284
2835.00,0.0282
2834.00,0.0280
2833.00,0.0278
2832.00,0.0275
2831.00,0.0274
2830.00,0.0272
2829.00,0.0270
2828.00,0.0269
2827.00,0.0267
2826.00,0.0266
2825.00,0.0264
2824.00,0.0262
2823.00,0.0261
2822.00,0.0259
2821.00,0.0258
2820.00,0.0256
2819.00,0.0255
2818.00,0.0253
2817.00,0.0252
2816.00,0.0250
2815.00,0.0249
2814.00,0.0247
2813.00,0.0245
2812.00,0.0244
2811.00,0.0242
2810.00,0.0241
2809.00,0.0240
2808.00,0.0238
2807.00,0.0237
2806.00,0.0235
2805.00,0.0234
2804.00,0.0233
2803.00,0.0231
2802.00,0.0230
2801.00,0.0228
2800.00,0.0227
2799.00,0.0225
2798.00,0.0224
2797.00,0.0223
2796.00,0.0223
2795.00,0.0221
2794.00,0.0220
2793.00,0.0218
2792.00,0.0217
2791.00,0.0216
2790.00,0.0215
2789.00,0.0215
2788.00,0.0214
2787.00,0.0213
2786.00,0.0212
2785.00,0.0211
2784.00,0.0210
2783.00,0.0209
2782.00,0.0208
2781.00,0.0207
2780.00,0.0206
2779.00,0.0204
2778.00,0.0203
2777.00,0.0202
2776.00,0.0201
2775.00,0.0200
2774.00,0.0199
2773.00,0.0198
2772.00,0.0197
2771.00,0.0196
2770.00,0.0195
2769.00,0.0195
2768.00,0.0194
2767.00,0.0193
2766.00,0.0193
2765.00,0.0192
2764.00,0.0191
2763.00,0.0190
2762.00,0.0189
2761.00,0.0188
2760.00,0.0188
2759.00,0.0187
2758.00,0.0186
2757.00,0.0185
2756.00,0.0184
2755.00,0.0183
2754.00,0.0182
2753.00,0.0182
2752.00,0.0181
2751.00,0.0180
2750.00,0.0180
2749.00,0.0179
2748.00,0.0179
2747.00,0.0178
2746.00,0.0177
2745.00,0.0176
2744.00,0.0175
2743.00,0.0174
2742.00,0.0174
2741.00,0.0173
2740.00,0.0172
2739.00,0.0171
2738.00,0.0170
2737.00,0.0170
2736.00,0.0169
2735.00,0.0169
2734.00,0.0168
2733.00,0.0168
2732.00,0.0167
2731.00,0.0166
2730.00,0.0165
2729.00,0.0165
2728.00,0.0164
2727.00,0.0163
2726.00,0.0162
2725.00,0.0162
2724.00,0.0161
2723.00,0.0160
2722.00,0.0159
2721.00,0.0158
2720.00,0.0158
2719.00,0.0157
2718.00,0.0157
2717.00,0.0156
2716.00,0.0156
2715.00,0.0155
2714.00,0.0154
2713.00,0.0154
2712.00,0.0153
2711.00,0.0152
2710.00,0.0151
2709.00,0.0151
2708.00,0.0150
2707.00,0.0150
2706.00,0.0149
2705.00,0.0149
2704.00,0.0149
2703.00,0.0148
2702.00,0.0148
2701.00,0.0147
2700.00,0.0146
2699.00,0.0146
2698.00,0.0145
2697.00,0.0145
2696.00,0.0144
2695.00,0.0144
2694.00,0.0143
2693.00,0.0143
2692.00,0.0142
2691.00,0.0142
2690.00,0.0141
2689.00,0.0141
2688.00,0.0140
2687.00,0.0140
2686.00,0.0139
2685.00,0.0139
2684.00,0.0139
2683.00,0.0138
2682.00,0.0138
2681.00,0.0137
2680.00,0.0137
2679.00,0.0136
2678.00,0.0136
2677.00,0.0135
2676.00,0.0135
2675.00,0.0134
2674.00,0.0134
2673.00,0.0133
2672.00,0.0133
2671.00,0.0132
2670.00,0.0132
2669.00,0.0132
2668.00,0.0132
2667.00,0.0132
2666.00,0.0132
2665.00,0.0131
2664.00,0.0131
2663.00,0.0132
2662.00,0.0132
2661.00,0.0132
2660.00,0.0132
2659.00,0.0132
2658.00,0.0132
2657.00,0.0131
2656.00,0.0131
2655.00,0.0130
2654.00,0.0130
2653.00,0.0129
2652.00,0.0129
2651.00,0.0129
2650.00,0.0129
2649.00,0.0128
2648.00,0.0128
2647.00,0.0127
2646.00,0.0126
2645.00,0.0126
2644.00,0.0126
2643.00,0.0125
2642.00,0.0125
2641.00,0.0124
2640.00,0.0124
2639.00,0.0123
2638.00,0.0123
2637.00,0.0122
2636.00,0.0121
2635.00,0.0121
2634.00,0.0120
2633.00,0.0119
2632.00,0.0119
2631.00,0.0118
2630.00,0.0118
2629.00,0.0117
2628.00,0.0117
2627.00,0.0117
2626.00,0.0116
2625.00,0.0116
2624.00,0.0115
2623.00,0.0115
2622.00,0.0114
2621.00,0.0114
2620.00,0.0113
2619.00,0.0113
2618.00,0.0113
2617.00,0.0112
2616.00,0.0112
2615.00,0.0111
2614.00,0.0110
2613.00,0.0110
2612.00,0.0110
2611.00,0.0109
2610.00,0.0109
2609.00,0.0108
2608.00,0.0107
2607.00,0.0106
2606.00,0.0106
2605.00,0.0106
2604.00,0.0106
2603.00,0.0106
2602.00,0.0106
2601.00,0.0105
2600.00,0.0105
2599.00,0.0104
2598.00,0.0104
2597.00,0.0104
2596.00,0.0103
2595.00,0.0103
2594.00,0.0102
2593.00,0.0102
2592.00,0.0101
2591.00,0.0100
2590.00,0.0100
2589.00,0.0099
2588.00,0.0099
2587.00,0.0098
2586.00,0.0098
2585.00,0.0097
2584.00,0.0097
2583.00,0.0097
2582.00,0.0097
2581.00,0.0097
2580.00,0.0098
2579.00,0.0098
2578.00,0.0098
2577.00,0.0097
2576.00,0.0097
2575.00,0.0097
2574.00,0.0096
2573.00,0.0096
2572.00,0.0096
2571.00,0.0095
2570.00,0.0094
2569.00,0.0094
2568.00,0.0093
2567.00,0.0093
2566.00,0.0092
2565.00,0.0092
2564.00,0.0092
2563.00,0.0091
2562.00,0.0091
2561.00,0.0091
2560.00,0.0091
2559.00,0.0091
2558.00,0.0091
2557.00,0.0091
2556.00,0.0091
2555.00,0.0091
2554.00,0.0091
2553.00,0.0091
2552.00,0.0091
2551.00,0.0091
2550.00,0.0091
2549.00,0.0091
2548.00,0.0090
2547.00,0.0090
2546.00,0.0090
2545.00,0.0089
2544.00,0.0089
2543.00,0.0089
2542.00,0.0089
2541.00,0.0089
2540.00,0.0089
2539.00,0.0088
2538.00,0.0088
2537.00,0.0087
2536.00,0.0087
2535.00,0.0087
2534.00,0.0087
2533.00,0.0087
2532.00,0.0088
2531.00,0.0087
2530.00,0.0087
2529.00,0.0087
2528.00,0.0087
2527.00,0.0088
2526.00,0.0088
2525.00,0.0088
2524.00,0.0087
2523.00,0.0087
2522.00,0.0087
2521.00,0.0087
2520.00,0.0087
2519.00,0.0086
2518.00,0.0086
2517.00,0.0087
2516.00,0.0087
2515.00,0.0087
2514.00,0.0087
2513.00,0.0087
2512.00,0.0086
2511.00,0.0086
2510.00,0.0086
2509.00,0.0086
2508.00,0.0086
2507.00,0.0086
2506.00,0.0086
2505.00,0.0085
2504.00,0.0085
2503.00,0.0085
2502.00,0.0085
2501.00,0.0085
2500.00,0.0084
2499.00,0.0084
2498.00,0.0084
2497.00,0.0084
2496.00,0.0085
2495.00,0.0085
2494.00,0.0085
2493.00,0.0085
2492.00,0.0084
2491.00,0.0084
2490.00,0.0084
2489.00,0.0084
2488.00,0.0084
2487.00,0.0084
2486.00,0.0084
2485.00,0.0084
2484.00,0.0083
2483.00,0.0083
2482.00,0.0083
2481.00,0.0083
2480.00,0.0083
2479.00,0.0082
2478.00,0.0082
2477.00,0.0082
2476.00,0.0082
2475.00,0.0082
2474.00,0.0082
2473.00,0.0082
2472.00,0.0082
2471.00,0.0082
2470.00,0.0082
2469.00,0.0081
2468.00,0.0081
2467.00,0.0081
2466.00,0.0081
2465.00,0.0081
2464.00,0.0081
2463.00,0.0081
2462.00,0.0082
2461.00,0.0082
2460.00,0.0083
2459.00,0.0083
2458.00,0.0083
2457.00,0.0084
2456.00,0.0084
2455.00,0.0085
2454.00,0.0084
2453.00,0.0084
2452.00,0.0083
2451.00,0.0083
2450.00,0.0083
2449.00,0.0083
2448.00,0.0083
2447.00,0.0082
2446.00,0.0082
2445.00,0.0082
2444.00,0.0082
2443.00,0.0082
2442.00,0.0082
2441.00,0.0082
2440.00,0.0082
2439.00,0.0082
2438.00,0.0082
2437.00,0.0081
2436.00,0.0081
2435.00,0.0081
2434.00,0.0081
2433.00,0.0081
2432.00,0.0081
2431.00,0.0082
2430.00,0.0082
2429.00,0.0081
2428.00,0.0081
2427.00,0.0081
2426.00,0.0082
2425.00,0.0082
2424.00,0.0082
2423.00,0.0082
2422.00,0.0081
2421.00,0.0081
2420.00,0.0081
2419.00,0.0080
2418.00,0.0080
2417.00,0.0080
2416.00,0.0080
2415.00,0.0079
2414.00,0.0079
2413.00,0.0079
2412.00,0.0080
2411.00,0.0081
2410.00,0.0081
2409.00,0.0081
2408.00,0.0081
2407.00,0.0080
2406.00,0.0080
2405.00,0.0080
2404.00,0.0080
2403.00,0.0080
2402.00,0.0080
2401.00,0.0081
2400.00,0.0081
2399.00,0.0081
2398.00,0.0081
2397.00,0.0081
2396.00,0.0081
2395.00,0.0081
2394.00,0.0081
2393.00,0.0082
2392.00,0.0082
2391.00,0.0082
2390.00,0.0082
2389.00,0.0082
2388.00,0.0082
2387.00,0.0082
2386.00,0.0081
2385.00,0.0081
2384.00,0.0081
2383.00,0.0080
2382.00,0.0079
2381.00,0.0078
2380.00,0.0078
2379.00,0.0077
2378.00,0.0077
2377.00,0.0078
2376.00,0.0079
2375.00,0.0080
2374.00,0.0082
2373.00,0.0082
2372.00,0.0083
2371.00,0.0082
2370.00,0.0081
2369.00,0.0081
2368.00,0.0080
2367.00,0.0080
2366.00,0.0080
2365.00,0.0081
2364.00,0.0082
2363.00,0.0084
2362.00,0.0085
2361.00,0.0086
2360.00,0.0086
2359.00,0.0086
2358.00,0.0085
2357.00,0.0085
2356.00,0.0085
2355.00,0.0086
2354.00,0.0087
2353.00,0.0087
2352.00,0.0086
2351.00,0.0085
2350.00,0.0085
2349.00,0.0087
2348.00,0.0089
2347.00,0.0091
2346.00,0.0091
2345.00,0.0090
2344.00,0.0090
2343.00,0.0090
2342.00,0.0092
2341.00,0.0093
2340.00,0.0093
2339.00,0.0092
2338.00,0.0092
2337.00,0.0092
2336.00,0.0092
2335.00,0.0092
2334.00,0.0092
2333.00,0.0091
2332.00,0.0090
2331.00,0.0090
2330.00,0.0090
2329.00,0.0091
2328.00,0.0095
2327.00,0.0099
2326.00,0.0105
2325.00,0.0109
2324.00,0.0110
2323.00,0.0109
2322.00,0.0106
2321.00,0.0104
2320.00,0.0103
2319.00,0.0103
2318.00,0.0103
2317.00,0.0104
2316.00,0.0103
2315.00,0.0103
2314.00,0.0102
2313.00,0.0101
2312.00,0.0101
2311.00,0.0101
2310.00,0.0100
2309.00,0.0100
2308.00,0.0099
2307.00,0.0098
2306.00,0.0098
2305.00,0.0098
2304.00,0.0099
2303.00,0.0100
2302.00,0.0101
2301.00,0.0101
2300.00,0.0103
2299.00,0.0104
2298.00,0.0105
2297.00,0.0105
2296.00,0.0105
2295.00,0.0105
2294.00,0.0106
2293.00,0.0106
2292.00,0.0107
2291.00,0.0108
2290.00,0.0109
2289.00,0.0110
2288.00,0.0111
2287.00,0.0111
2286.00,0.0111
2285.00,0.0111
2284.00,0.0111
2283.00,0.0111
2282.00,0.0111
2281.00,0.0110
2280.00,0.0110
2279.00,0.0109
2278.00,0.0108
2277.00,0.0108
2276.00,0.0107
2275.00,0.0107
2274.00,0.0106
2273.00,0.0107
2272.00,0.0107
2271.00,0.0107
2270.00,0.0107
2269.00,0.0106
2268.00,0.0104
2267.00,0.0103
2266.00,0.0102
2265.00,0.0102
2264.00,0.0102
2263.00,0.0102
2262.00,0.0102
2261.00,0.0102
2260.00,0.0103
2259.00,0.0103
2258.00,0.0104
2257.00,0.0103
2256.00,0.0102
2255.00,0.0101
2254.00,0.0101
2253.00,0.0100
2252.00,0.0100
2251.00,0.0100
2250.00,0.0099
2249.00,0.0100
2248.00,0.0101
2247.00,0.0101
2246.00,0.0102
2245.00,0.0101
2244.00,0.0100
2243.00,0.0100
2242.00,0.0100
2241.00,0.0101
2240.00,0.0101
2239.00,0.0101
2238.00,0.0101
2237.00,0.0100
2236.00,0.0100
2235.00,0.0100
2234.00,0.0100
2233.00,0.0100
2232.00,0.0100
2231.00,0.0101
2230.00,0.0102
2229.00,0.0103
2228.00,0.0103
2227.00,0.0103
2226.00,0.0103
2225.00,0.0103
2224.00,0.0103
2223.00,0.0102
2222.00,0.0100
2221.00,0.0100
2220.00,0.0100
2219.00,0.0100
2218.00,0.0101
2217.00,0.0103
2216.00,0.0104
2215.00,0.0104
2214.00,0.0104
2213.00,0.0103
2212.00,0.0101
2211.00,0.0099
2210.00,0.0098
2209.00,0.0099
2208.00,0.0101
2207.00,0.0102
2206.00,0.0102
2205.00,0.0101
2204.00,0.0102
2203.00,0.0103
2202.00,0.0104
2201.00,0.0104
2200.00,0.0103
2199.00,0.0101
2198.00,0.0099
2197.00,0.0099
2196.00,0.0099
2195.00,0.0100
2194.00,0.0101
2193.00,0.0102
2192.00,0.0102
2191.00,0.0101
2190.00,0.0102
2189.00,0.0103
2188.00,0.0104
2187.00,0.0104
2186.00,0.0103
2185.00,0.0102
2184.00,0.0100
2183.00,0.0099
2182.00,0.0097
2181.00,0.0096
2180.00,0.0095
2179.00,0.0094
2178.00,0.0093
2177.00,0.0092
2176.00,0.0091
2175.00,0.0091
2174.00,0.0090
2173.00,0.0090
2172.00,0.0091
2171.00,0.0092
2170.00,0.0095
2169.00,0.0100
2168.00,0.0104
2167.00,0.0105
2166.00,0.0102
2165.00,0.0098
2164.00,0.0096
2163.00,0.0096
2162.00,0.0097
2161.00,0.0094
2160.00,0.0083
2159.00,0.0066
2158.00,0.0051
2157.00,0.0045
2156.00,0.0046
2155.00,0.0051
2154.00,0.0055
2153.00,0.0059
2152.00,0.0062
2151.00,0.0065
2150.00,0.0067
2149.00,0.0071
2148.00,0.0074
2147.00,0.0076
2146.00,0.0077
2145.00,0.0077
2144.00,0.0078
2143.00,0.0078
2142.00,0.0078
2141.00,0.0078
2140.00,0.0080
2139.00,0.0083
2138.00,0.0086
2137.00,0.0087
2136.00,0.0086
2135.00,0.0084
2134.00,0.0082
2133.00,0.0082
2132.00,0.0084
2131.00,0.0087
2130.00,0.0089
2129.00,0.0093
2128.00,0.0096
2127.00,0.0099
2126.00,0.0101
2125.00,0.0103
2124.00,0.0105
2123.00,0.0107
2122.00,0.0108
2121.00,0.0108
2120.00,0.0108
2119.00,0.0108
2118.00,0.0108
2117.00,0.0110
2116.00,0.0112
2115.00,0.0114
2114.00,0.0115
2113.00,0.0115
2112.00,0.0114
2111.00,0.0114
2110.00,0.0114
2109.00,0.0115
2108.00,0.0117
2107.00,0.0118
2106.00,0.0118
2105.00,0.0118
2104.00,0.0117
2103.00,0.0116
2102.00,0.0115
2101.00,0.0113
2100.00,0.0113
2099.00,0.0112
2098.00,0.0110
2097.00,0.0110
2096.00,0.0109
2095.00,0.0108
2094.00,0.0106
2093.00,0.0105
2092.00,0.0105
2091.00,0.0105
2090.00,0.0105
2089.00,0.0106
2088.00,0.0107
2087.00,0.0108
2086.00,0.0109
2085.00,0.0109
2084.00,0.0110
2083.00,0.0109
2082.00,0.0108
2081.00,0.0108
2080.00,0.0108
2079.00,0.0108
2078.00,0.0107
2077.00,0.0106
2076.00,0.0105
2075.00,0.0105
2074.00,0.0105
2073.00,0.0105
2072.00,0.0105
2071.00,0.0105
2070.00,0.0103
2069.00,0.0101
2068.00,0.0099
2067.00,0.0097
2066.00,0.0095
2065.00,0.0093
2064.00,0.0093
2063.00,0.0093
2062.00,0.0094
2061.00,0.0096
2060.00,0.0097
2059.00,0.0097
2058.00,0.0095
2057.00,0.0094
2056.00,0.0092
2055.00,0.0091
2054.00,0.0091
2053.00,0.0094
2052.00,0.0098
2051.00,0.0100
2050.00,0.0100
2049.00,0.0096
2048.00,0.0090
2047.00,0.0085
2046.00,0.0081
2045.00,0.0078
2044.00,0.0075
2043.00,0.0073
2042.00,0.0073
2041.00,0.0074
2040.00,0.0077
2039.00,0.0079
2038.00,0.0079
2037.00,0.0078
2036.00,0.0075
2035.00,0.0071
2034.00,0.0067
2033.00,0.0065
2032.00,0.0065
2031.00,0.0065
2030.00,0.0065
2029.00,0.0064
2028.00,0.0062
2027.00,0.0058
2026.00,0.0056
2025.00,0.0056
2024.00,0.0058
2023.00,0.0060
2022.00,0.0061
2021.00,0.0061
2020.00,0.0061
2019.00,0.0061
2018.00,0.0059
2017.00,0.0058
2016.00,0.0057
2015.00,0.0056
2014.00,0.0055
2013.00,0.0055
2012.00,0.0055
2011.00,0.0053
2010.00,0.0051
2009.00,0.0050
2008.00,0.0050
2007.00,0.0049
2006.00,0.0048
2005.00,0.0048
2004.00,0.0051
2003.00,0.0054
2002.00,0.0056
2001.00,0.0060
2000.00,0.0063
1999.00,0.0065
1998.00,0.0066
1997.00,0.0066
1996.00,0.0065
1995.00,0.0064
1994.00,0.0064
1993.00,0.0066
1992.00,0.0068
1991.00,0.0069
1990.00,0.0068
1989.00,0.0068
1988.00,0.0068
1987.00,0.0067
1986.00,0.0067
1985.00,0.0069
1984.00,0.0072
1983.00,0.0075
1982.00,0.0077
1981.00,0.0077
1980.00,0.0076
1979.00,0.0070
1978.00,0.0063
1977.00,0.0058
1976.00,0.0055
1975.00,0.0052
1974.00,0.0049
1973.00,0.0047
1972.00,0.0046
1971.00,0.0045
1970.00,0.0045
1969.00,0.0045
1968.00,0.0047
1967.00,0.0048
1966.00,0.0048
1965.00,0.0050
1964.00,0.0052
1963.00,0.0052
1962.00,0.0051
1961.00,0.0049
1960.00,0.0048
1959.00,0.0046
1958.00,0.0045
1957.00,0.0046
1956.00,0.0050
1955.00,0.0053
1954.00,0.0054
1953.00,0.0052
1952.00,0.0052
1951.00,0.0052
1950.00,0.0052
1949.00,0.0053
1948.00,0.0052
1947.00,0.0050
1946.00,0.0049
1945.00,0.0050
1944.00,0.0051
1943.00,0.0051
1942.00,0.0051
1941.00,0.0052
1940.00,0.0054
1939.00,0.0056
1938.00,0.0056
1937.00,0.0055
1936.00,0.0055
1935.00,0.0055
1934.00,0.0056
1933.00,0.0056
1932.00,0.0056
1931.00,0.0055
1930.00,0.0056
1929.00,0.0057
1928.00,0.0057
1927.00,0.0057
1926.00,0.0056
1925.00,0.0055
1924.00,0.0055
1923.00,0.0056
1922.00,0.0056
1921.00,0.0057
1920.00,0.0058
1919.00,0.0058
1918.00,0.0056
1917.00,0.0054
1916.00,0.0055
1915.00,0.0056
1914.00,0.0056
1913.00,0.0057
1912.00,0.0057
1911.00,0.0057
1910.00,0.0057
1909.00,0.0057
1908.00,0.0057
1907.00,0.0057
1906.00,0.0056
1905.00,0.0055
1904.00,0.0055
1903.00,0.0054
1902.00,0.0054
1901.00,0.0055
1900.00,0.0055
1899.00,0.0055
1898.00,0.0054
1897.00,0.0055
1896.00,0.0056
1895.00,0.0056
1894.00,0.0055
1893.00,0.0053
1892.00,0.0053
1891.00,0.0052
1890.00,0.0052
1889.00,0.0051
1888.00,0.0051
1887.00,0.0052
1886.00,0.0052
1885.00,0.0052
1884.00,0.0052
1883.00,0.0052
1882.00,0.0052
1881.00,0.0053
1880.00,0.0053
1879.00,0.0052
1878.00,0.0051
1877.00,0.0050
1876.00,0.0050
1875.00,0.0051
1874.00,0.0051
1873.00,0.0050
1872.00,0.0050
1871.00,0.0050
1870.00,0.0049
1869.00,0.0049
1868.00,0.0048
1867.00,0.0049
1866.00,0.0049
1865.00,0.0050
1864.00,0.0050
1863.00,0.0049
1862.00,0.0049
1861.00,0.0049
1860.00,0.0049
1859.00,0.0050
1858.00,0.0051
1857.00,0.0050
1856.00,0.0050
1855.00,0.0049
1854.00,0.0048
1853.00,0.0048
1852.00,0.0048
1851.00,0.0048
1850.00,0.0048
1849.00,0.0047
1848.00,0.0047
1847.00,0.0047
1846.00,0.0048
1845.00,0.0049
1844.00,0.0049
1843.00,0.0047
1842.00,0.0045
1841.00,0.0046
1840.00,0.0048
1839.00,0.0049
1838.00,0.0048
1837.00,0.0047
1836.00,0.0047
1835.00,0.0047
1834.00,0.0047
1833.00,0.0048
1832.00,0.0048
1831.00,0.0049
1830.00,0.0048
1829.00,0.0047
1828.00,0.0046
1827.00,0.0047
1826.00,0.0047
1825.00,0.0048
1824.00,0.0048
1823.00,0.0048
1822.00,0.0049
1821.00,0.0050
1820.00,0.0050
1819.00,0.0049
1818.00,0.0047
1817.00,0.0045
1816.00,0.0045
1815.00,0.0045
1814.00,0.0046
1813.00,0.0048
1812.00,0.0049
1811.00,0.0049
1810.00,0.0049
1809.00,0.0049
1808.00,0.0049
1807.00,0.0048
1806.00,0.0048
1805.00,0.0047
1804.00,0.0047
1803.00,0.0047
1802.00,0.0047
1801.00,0.0047
1800.00,0.0048
1799.00,0.0049
1798.00,0.0049
1797.00,0.0049
1796.00,0.0048
1795.00,0.0048
1794.00,0.0049
1793.00,0.0049
1792.00,0.0048
1791.00,0.0046
1790.00,0.0046
1789.00,0.0047
1788.00,0.0048
1787.00,0.0049
1786.00,0.0048
1785.00,0.0047
1784.00,0.0047
1783.00,0.0047
1782.00,0.0047
1781.00,0.0048
1780.00,0.0048
1779.00,0.0047
1778.00,0.0047
1777.00,0.0046
1776.00,0.0046
1775.00,0.0047
1774.00,0.0048
1773.00,0.0050
1772.00,0.0049
1771.00,0.0047
1770.00,0.0046
1769.00,0.0048
1768.00,0.0049
1767.00,0.0049
1766.00,0.0047
1765.00,0.0047
1764.00,0.0048
1763.00,0.0049
1762.00,0.0049
1761.00,0.0049
1760.00,0.0050
1759.00,0.0053
1758.00,0.0056
1757.00,0.0058
1756.00,0.0061
1755.00,0.0063
1754.00,0.0066
1753.00,0.0070
1752.00,0.0075
1751.00,0.0078
1750.00,0.0080
1749.00,0.0083
1748.00,0.0088
1747.00,0.0092
1746.00,0.0095
1745.00,0.0098
1744.00,0.0102
1743.00,0.0104
1742.00,0.0107
1741.00,0.0111
1740.00,0.0115
1739.00,0.0117
1738.00,0.0117
1737.00,0.0120
1736.00,0.0127
1735.00,0.0134
1734.00,0.0139
1733.00,0.0141
1732.00,0.0143
1731.00,0.0146
1730.00,0.0149
1729.00,0.0153
1728.00,0.0157
1727.00,0.0161
1726.00,0.0165
1725.00,0.0169
1724.00,0.0175
1723.00,0.0180
1722.00,0.0183
1721.00,0.0187
1720.00,0.0193
1719.00,0.0201
1718.00,0.0210
1717.00,0.0219
1716.00,0.0228
1715.00,0.0235
1714.00,0.0240
1713.00,0.0247
1712.00,0.0254
1711.00,0.0261
1710.00,0.0268
1709.00,0.0276
1708.00,0.0284
1707.00,0.0295
1706.00,0.0307
1705.00,0.0318
1704.00,0.0328
1703.00,0.0339
1702.00,0.0353
1701.00,0.0373
1700.00,0.0398
1699.00,0.0422
1698.00,0.0443
1697.00,0.0468
1696.00,0.0495
1695.00,0.0521
1694.00,0.0541
1693.00,0.0560
1692.00,0.0581
1691.00,0.0605
1690.00,0.0630
1689.00,0.0656
1688.00,0.0681
1687.00,0.0705
1686.00,0.0731
1685.00,0.0763
1684.00,0.0804
1683.00,0.0840
1682.00,0.0867
1681.00,0.0891
1680.00,0.0914
1679.00,0.0936
1678.00,0.0956
1677.00,0.0978
1676.00,0.1006
1675.00,0.1040
1674.00,0.1072
1673.00,0.1099
1672.00,0.1124
1671.00,0.1151
1670.00,0.1184
1669.00,0.1222
1668.00,0.1259
1667.00,0.1290
1666.00,0.1315
1665.00,0.1340
1664.00,0.1370
1663.00,0.1406
1662.00,0.1444
1661.00,0.1481
1660.00,0.1514
1659.00,0.1543
1658.00,0.1566
1657.00,0.1583
1656.00,0.1597
1655.00,0.1613
1654.00,0.1642
1653.00,0.1697
1652.00,0.1750
1651.00,0.1775
1650.00,0.1781
1649.00,0.1783
1648.00,0.1792
1647.00,0.1812
1646.00,0.1837
1645.00,0.1858
1644.00,0.1871
1643.00,0.1877
1642.00,0.1880
1641.00,0.1882
1640.00,0.1884
1639.00,0.1885
1638.00,0.1885
1637.00,0.1887
1636.00,0.1895
1635.00,0.1908
1634.00,0.1915
1633.00,0.1913
1632.00,0.1906
1631.00,0.1894
1630.00,0.1879
1629.00,0.1864
1628.00,0.1850
1627.00,0.1837
1626.00,0.1822
1625.00,0.1804
1624.00,0.1785
1623.00,0.1765
1622.00,0.1744
1621.00,0.1721
1620.00,0.1695
1619.00,0.1666
1618.00,0.1631
1617.00,0.1591
1616.00,0.1551
1615.00,0.1514
1614.00,0.1478
1613.00,0.1441
1612.00,0.1403
1611.00,0.1364
1610.00,0.1326
1609.00,0.1291
1608.00,0.1257
1607.00,0.1224
1606.00,0.1193
1605.00,0.1163
1604.00,0.1134
1603.00,0.1106
1602.00,0.1079
1601.00,0.1052
1600.00,0.1027
1599.00,0.1002
1598.00,0.0979
1597.00,0.0957
1596.00,0.0935
1595.00,0.0915
1594.00,0.0896
1593.00,0.0878
1592.00,0.0860
1591.00,0.0844
1590.00,0.0829
1589.00,0.0815
1588.00,0.0803
1587.00,0.0791
1586.00,0.0782
1585.00,0.0773
1584.00,0.0764
1583.00,0.0757
1582.00,0.0751
1581.00,0.0746
1580.00,0.0740
1579.00,0.0737
1578.00,0.0737
1577.00,0.0739
1576.00,0.0741
1575.00,0.0742
1574.00,0.0742
1573.00,0.0741
1572.00,0.0740
1571.00,0.0740
1570.00,0.0744
1569.00,0.0752
1568.00,0.0760
1567.00,0.0767
1566.00,0.0774
1565.00,0.0780
1564.00,0.0785
1563.00,0.0789
1562.00,0.0793
1561.00,0.0795
1560.00,0.0801
1559.00,0.0822
1558.00,0.0851
1557.00,0.0869
1556.00,0.0880
1555.00,0.0889
1554.00,0.0898
1553.00,0.0905
1552.00,0.0910
1551.00,0.0916
1550.00,0.0921
1549.00,0.0927
1548.00,0.0931
1547.00,0.0931
1546.00,0.0930
1545.00,0.0926
1544.00,0.0923
1543.00,0.0920
1542.00,0.0919
1541.00,0.0919
1540.00,0.0918
1539.00,0.0915
1538.00,0.0907
1537.00,0.0894
1536.00,0.0880
1535.00,0.0865
1534.00,0.0848
1533.00,0.0832
1532.00,0.0820
1531.00,0.0808
1530.00,0.0795
1529.00,0.0780
1528.00,0.0764
1527.00,0.0748
1526.00,0.0733
1525.00,0.0719
1524.00,0.0706
1523.00,0.0693
1522.00,0.0680
1521.00,0.0666
1520.00,0.0653
1519.00,0.0641
1518.00,0.0627
1517.00,0.0612
1516.00,0.0596
1515.00,0.0581
1514.00,0.0564
1513.00,0.0546
1512.00,0.0526
1511.00,0.0504
1510.00,0.0484
1509.00,0.0466
1508.00,0.0450
1507.00,0.0434
1506.00,0.0419
1505.00,0.0405
1504.00,0.0390
1503.00,0.0375
1502.00,0.0360
1501.00,0.0345
1500.00,0.0330
1499.00,0.0318
1498.00,0.0308
1497.00,0.0300
1496.00,0.0291
1495.00,0.0282
1494.00,0.0273
1493.00,0.0264
1492.00,0.0256
1491.00,0.0248
1490.00,0.0241
1489.00,0.0236
1488.00,0.0233
1487.00,0.0230
1486.00,0.0228
1485.00,0.0225
1484.00,0.0223
1483.00,0.0222
1482.00,0.0221
1481.00,0.0223
1480.00,0.0225
1479.00,0.0227
1478.00,0.0230
1477.00,0.0234
1476.00,0.0239
1475.00,0.0246
1474.00,0.0256
1473.00,0.0269
1472.00,0.0283
1471.00,0.0293
1470.00,0.0300
1469.00,0.0304
1468.00,0.0307
1467.00,0.0310
1466.00,0.0314
1465.00,0.0320
1464.00,0.0327
1463.00,0.0334
1462.00,0.0338
1461.00,0.0340
1460.00,0.0341
1459.00,0.0345
1458.00,0.0353
1457.00,0.0368
1456.00,0.0381
1455.00,0.0387
1454.00,0.0388
1453.00,0.0387
1452.00,0.0386
1451.00,0.0383
1450.00,0.0381
1449.00,0.0380
1448.00,0.0380
1447.00,0.0381
1446.00,0.0382
1445.00,0.0382
1444.00,0.0382
1443.00,0.0381
1442.00,0.0381
1441.00,0.0380
1440.00,0.0379
1439.00,0.0377
1438.00,0.0375
1437.00,0.0377
1436.00,0.0381
1435.00,0.0386
1434.00,0.0388
1433.00,0.0389
1432.00,0.0390
1431.00,0.0392
1430.00,0.0395
1429.00,0.0400
1428.00,0.0405
1427.00,0.0408
1426.00,0.0412
1425.00,0.0416
1424.00,0.0421
1423.00,0.0425
1422.00,0.0427
1421.00,0.0429
1420.00,0.0432
1419.00,0.0438
1418.00,0.0444
1417.00,0.0449
1416.00,0.0452
1415.00,0.0453
1414.00,0.0451
1413.00,0.0450
1412.00,0.0448
1411.00,0.0447
1410.00,0.0444
1409.00,0.0441
1408.00,0.0437
1407.00,0.0432
1406.00,0.0427
1405.00,0.0423
1404.00,0.0420
1403.00,0.0415
1402.00,0.0408
1401.00,0.0400
1400.00,0.0392
1399.00,0.0384
1398.00,0.0377
1397.00,0.0370
1396.00,0.0363
1395.00,0.0356
1394.00,0.0349
1393.00,0.0344
1392.00,0.0338
1391.00,0.0331
1390.00,0.0324
1389.00,0.0318
1388.00,0.0314
1387.00,0.0311
1386.00,0.0308
1385.00,0.0305
1384.00,0.0302
1383.00,0.0298
1382.00,0.0295
1381.00,0.0292
1380.00,0.0288
1379.00,0.0284
1378.00,0.0279
1377.00,0.0274
1376.00,0.0268
1375.00,0.0262
1374.00,0.0256
1373.00,0.0251
1372.00,0.0246
1371.00,0.0240
1370.00,0.0234
1369.00,0.0227
1368.00,0.0220
1367.00,0.0212
1366.00,0.0204
1365.00,0.0195
1364.00,0.0186
1363.00,0.0179
1362.00,0.0174
1361.00,0.0170
1360.00,0.0167
1359.00,0.0163
1358.00,0.0159
1357.00,0.0154
1356.00,0.0150
1355.00,0.0146
1354.00,0.0143
1353.00,0.0140
1352.00,0.0136
1351.00,0.0133
1350.00,0.0129
1349.00,0.0125
1348.00,0.0121
1347.00,0.0117
1346.00,0.0113
1345.00,0.0108
1344.00,0.0104
1343.00,0.0100
1342.00,0.0095
1341.00,0.0091
1340.00,0.0087
1339.00,0.0084
1338.00,0.0082
1337.00,0.0080
1336.00,0.0077
1335.00,0.0074
1334.00,0.0071
1333.00,0.0068
1332.00,0.0065
1331.00,0.0063
1330.00,0.0061
1329.00,0.0060
1328.00,0.0060
1327.00,0.0059
1326.00,0.0059
1325.00,0.0059
1324.00,0.0059
1323.00,0.0059
1322.00,0.0059
1321.00,0.0060
1320.00,0.0060
1319.00,0.0060
1318.00,0.0060
1317.00,0.0060
1316.00,0.0059
1315.00,0.0058
1314.00,0.0057
1313.00,0.0055
1312.00,0.0054
1311.00,0.0053
1310.00,0.0052
1309.00,0.0051
1308.00,0.0049
1307.00,0.0048
1306.00,0.0047
1305.00,0.0047
1304.00,0.0047
1303.00,0.0047
1302.00,0.0048
1301.00,0.0049
1300.00,0.0051
1299.00,0.0053
1298.00,0.0056
1297.00,0.0060
1296.00,0.0064
1295.00,0.0068
1294.00,0.0074
1293.00,0.0079
1292.00,0.0086
1291.00,0.0093
1290.00,0.0101
1289.00,0.0110
1288.00,0.0120
1287.00,0.0131
1286.00,0.0142
1285.00,0.0154
1284.00,0.0166
1283.00,0.0179
1282.00,0.0192
1281.00,0.0205
1280.00,0.0219
1279.00,0.0234
1278.00,0.0248
1277.00,0.0263
1276.00,0.0278
1275.00,0.0293
1274.00,0.0309
1273.00,0.0324
1272.00,0.0339
1271.00,0.0353
1270.00,0.0368
1269.00,0.0383
1268.00,0.0397
1267.00,0.0411
1266.00,0.0425
1265.00,0.0438
1264.00,0.0452
1263.00,0.0466
1262.00,0.0479
1261.00,0.0492
1260.00,0.0504
1259.00,0.0515
1258.00,0.0526
1257.00,0.0537
1256.00,0.0547
1255.00,0.0557
1254.00,0.0567
1253.00,0.0576
1252.00,0.0585
1251.00,0.0594
1250.00,0.0602
1249.00,0.0610
1248.00,0.0618
1247.00,0.0625
1246.00,0.0632
1245.00,0.0640
1244.00,0.0648
1243.00,0.0655
1242.00,0.0662
1241.00,0.0669
1240.00,0.0676
1239.00,0.0683
1238.00,0.0691
1237.00,0.0698
1236.00,0.0706
1235.00,0.0712
1234.00,0.0719
1233.00,0.0726
1232.00,0.0733
1231.00,0.0740
1230.00,0.0746
1229.00,0.0753
1228.00,0.0760
1227.00,0.0766
1226.00,0.0772
1225.00,0.0778
1224.00,0.0783
1223.00,0.0788
1222.00,0.0792
1221.00,0.0796
1220.00,0.0798
1219.00,0.0799
1218.00,0.0798
1217.00,0.0797
1216.00,0.0794
1215.00,0.0789
1214.00,0.0784
1213.00,0.0778
1212.00,0.0771
1211.00,0.0763
1210.00,0.0754
1209.00,0.0745
1208.00,0.0735
1207.00,0.0724
1206.00,0.0713
1205.00,0.0701
1204.00,0.0688
1203.00,0.0676
1202.00,0.0663
1201.00,0.0652
1200.00,0.0641
1199.00,0.0631
1198.00,0.0622
1197.00,0.0614
1196.00,0.0608
1195.00,0.0603
1194.00,0.0600
1193.00,0.0598
1192.00,0.0597
1191.00,0.0596
1190.00,0.0595
1189.00,0.0594
1188.00,0.0594
1187.00,0.0595
1186.00,0.0596
1185.00,0.0598
1184.00,0.0602
1183.00,0.0606
1182.00,0.0612
1181.00,0.0619
1180.00,0.0629
1179.00,0.0640
1178.00,0.0652
1177.00,0.0665
1176.00,0.0680
1175.00,0.0697
1174.00,0.0714
1173.00,0.0733
1172.00,0.0752
1171.00,0.0772
1170.00,0.0794
1169.00,0.0816
1168.00,0.0840
1167.00,0.0864
1166.00,0.0888
1165.00,0.0912
1164.00,0.0936
1163.00,0.0959
1162.00,0.0980
1161.00,0.1000
1160.00,0.1018
1159.00,0.1036
1158.00,0.1052
1157.00,0.1067
1156.00,0.1082
1155.00,0.1095
1154.00,0.1107
1153.00,0.1118
1152.00,0.1128
1151.00,0.1135
1150.00,0.1141
1149.00,0.1146
1148.00,0.1148
1147.00,0.1149
1146.00,0.1147
1145.00,0.1145
1144.00,0.1142
1143.00,0.1138
1142.00,0.1133
1141.00,0.1128
1140.00,0.1125
1139.00,0.1122
1138.00,0.1120
1137.00,0.1121
1136.00,0.1124
1135.00,0.1129
1134.00,0.1136
1133.00,0.1143
1132.00,0.1153
1131.00,0.1163
1130.00,0.1174
1129.00,0.1187
1128.00,0.1199
1127.00,0.1210
1126.00,0.1220
1125.00,0.1229
1124.00,0.1237
1123.00,0.1244
1122.00,0.1251
1121.00,0.1257
1120.00,0.1262
1119.00,0.1267
1118.00,0.1271
1117.00,0.1274
1116.00,0.1277
1115.00,0.1279
1114.00,0.1280
1113.00,0.1281
1112.00,0.1281
1111.00,0.1281
1110.00,0.1280
1109.00,0.1280
1108.00,0.1281
1107.00,0.1284
1106.00,0.1288
1105.00,0.1295
1104.00,0.1303
1103.00,0.1313
1102.00,0.1323
1101.00,0.1335
1100.00,0.1350
1099.00,0.1364
1098.00,0.1379
1097.00,0.1393
1096.00,0.1407
1095.00,0.1421
1094.00,0.1434
1093.00,0.1449
1092.00,0.1466
1091.00,0.1483
1090.00,0.1502
1089.00,0.1523
1088.00,0.1544
1087.00,0.1567
1086.00,0.1590
1085.00,0.1614
1084.00,0.1638
1083.00,0.1663
1082.00,0.1689
1081.00,0.1716
1080.00,0.1744
1079.00,0.1770
1078.00,0.1795
1077.00,0.1820
1076.00,0.1843
1075.00,0.1863
1074.00,0.1880
1073.00,0.1896
1072.00,0.1910
1071.00,0.1922
1070.00,0.1932
1069.00,0.1940
1068.00,0.1946
1067.00,0.1949
1066.00,0.1949
1065.00,0.1948
1064.00,0.1947
1063.00,0.1944
1062.00,0.1941
1061.00,0.1939
1060.00,0.1940
1059.00,0.1942
1058.00,0.1947
1057.00,0.1956
1056.00,0.1969
1055.00,0.1984
1054.00,0.2002
1053.00,0.2022
1052.00,0.2044
1051.00,0.2070
1050.00,0.2097
1049.00,0.2128
1048.00,0.2161
1047.00,0.2192
1046.00,0.2221
1045.00,0.2249
1044.00,0.2274
1043.00,0.2294
1042.00,0.2310
1041.00,0.2323
1040.00,0.2332
1039.00,0.2339
1038.00,0.2342
1037.00,0.2345
1036.00,0.2346
1035.00,0.2347
1034.00,0.2346
1033.00,0.2347
1032.00,0.2349
1031.00,0.2351
1030.00,0.2351
1029.00,0.2348
1028.00,0.2342
1027.00,0.2332
1026.00,0.2317
1025.00,0.2300
1024.00,0.2280
1023.00,0.2259
1022.00,0.2235
1021.00,0.2210
1020.00,0.2184
1019.00,0.2156
1018.00,0.2126
1017.00,0.2097
1016.00,0.2067
1015.00,0.2036
1014.00,0.2005
1013.00,0.1974
1012.00,0.1946
1011.00,0.1918
1010.00,0.1891
1009.00,0.1865
1008.00,0.1840
1007.00,0.1816
1006.00,0.1792
1005.00,0.1767
1004.00,0.1740
1003.00,0.1708
1002.00,0.1672
1001.00,0.1634
1000.00,0.1594
999.00,0.1552
998.00,0.1508
997.00,0.1466
996.00,0.1425
995.00,0.1386
994.00,0.1348
993.00,0.1311
992.00,0.1275
991.00,0.1238
990.00,0.1203
989.00,0.1167
988.00,0.1132
987.00,0.1097
986.00,0.1062
985.00,0.1028
984.00,0.0995
983.00,0.0964
982.00,0.0935
981.00,0.0908
980.00,0.0883
979.00,0.0860
978.00,0.0837
977.00,0.0815
976.00,0.0795
975.00,0.0774
974.00,0.0752
973.00,0.0731
972.00,0.0710
971.00,0.0689
970.00,0.0667
969.00,0.0643
968.00,0.0616
967.00,0.0588
966.00,0.0557
965.00,0.0526
964.00,0.0495
963.00,0.0464
962.00,0.0433
961.00,0.0405
960.00,0.0379
959.00,0.0355
958.00,0.0334
957.00,0.0314
956.00,0.0298
955.00,0.0282
954.00,0.0269
953.00,0.0257
952.00,0.0247
951.00,0.0239
950.00,0.0233
949.00,0.0228
948.00,0.0225
947.00,0.0223
946.00,0.0222
945.00,0.0224
944.00,0.0227
943.00,0.0233
942.00,0.0241
941.00,0.0252
940.00,0.0265
939.00,0.0279
938.00,0.0294
937.00,0.0309
936.00,0.0324
935.00,0.0337
934.00,0.0348
933.00,0.0356
932.00,0.0362
931.00,0.0366
930.00,0.0367
929.00,0.0366
928.00,0.0362
927.00,0.0355
926.00,0.0347
925.00,0.0338
924.00,0.0330
923.00,0.0323
922.00,0.0316
921.00,0.0307
920.00,0.0298
919.00,0.0288
918.00,0.0277
917.00,0.0265
916.00,0.0252
915.00,0.0239
914.00,0.0226
913.00,0.0213
912.00,0.0199
911.00,0.0186
910.00,0.0173
909.00,0.0161
908.00,0.0150
907.00,0.0140
906.00,0.0131
905.00,0.0122
904.00,0.0114
903.00,0.0106
902.00,0.0100
901.00,0.0093
900.00,0.0087
899.00,0.0081
898.00,0.0076
897.00,0.0073
896.00,0.0070
895.00,0.0068
894.00,0.0067
893.00,0.0066
892.00,0.0064
891.00,0.0063
890.00,0.0061
889.00,0.0061
888.00,0.0060
887.00,0.0059
886.00,0.0058
885.00,0.0057
884.00,0.0055
883.00,0.0053
882.00,0.0051
881.00,0.0051
880.00,0.0052
879.00,0.0055
878.00,0.0060
877.00,0.0065
876.00,0.0070
875.00,0.0076
874.00,0.0081
873.00,0.0084
872.00,0.0084
871.00,0.0080
870.00,0.0073
869.00,0.0063
868.00,0.0054
867.00,0.0047
866.00,0.0042
865.00,0.0039
864.00,0.0038
863.00,0.0038
862.00,0.0040
861.00,0.0042
860.00,0.0045
859.00,0.0049
858.00,0.0055
857.00,0.0063
856.00,0.0072
855.00,0.0081
854.00,0.0090
853.00,0.0100
852.00,0.0110
851.00,0.0120
850.00,0.0129
849.00,0.0138
848.00,0.0144
847.00,0.0149
846.00,0.0150
845.00,0.0150
844.00,0.0147
843.00,0.0143
842.00,0.0137
841.00,0.0132
840.00,0.0126
839.00,0.0121
838.00,0.0116
837.00,0.0111
836.00,0.0107
835.00,0.0103
834.00,0.0099
833.00,0.0094
832.00,0.0089
831.00,0.0084
830.00,0.0079
829.00,0.0075
828.00,0.0070
827.00,0.0066
826.00,0.0061
825.00,0.0058
824.00,0.0055
823.00,0.0054
822.00,0.0053
821.00,0.0053
820.00,0.0051
819.00,0.0050
818.00,0.0048
817.00,0.0047
816.00,0.0046
815.00,0.0047
814.00,0.0048
813.00,0.0050
812.00,0.0052
811.00,0.0055
810.00,0.0058
809.00,0.0062
808.00,0.0067
807.00,0.0071
806.00,0.0075
805.00,0.0080
804.00,0.0083
803.00,0.0086
802.00,0.0088
801.00,0.0088
800.00,0.0089
799.00,0.0088
798.00,0.0087
797.00,0.0086
796.00,0.0084
795.00,0.0081
794.00,0.0077
793.00,0.0073
792.00,0.0069
791.00,0.0067
790.00,0.0065
789.00,0.0064
788.00,0.0064
787.00,0.0063
786.00,0.0063
785.00,0.0064
784.00,0.0065
783.00,0.0067
782.00,0.0070
781.00,0.0074
780.00,0.0078
779.00,0.0082
778.00,0.0084
777.00,0.0085
776.00,0.0085
775.00,0.0085
774.00,0.0085
773.00,0.0083
772.00,0.0081
771.00,0.0077
770.00,0.0073
769.00,0.0069
768.00,0.0066
767.00,0.0063
766.00,0.0060
765.00,0.0057
764.00,0.0053
763.00,0.0051
762.00,0.0049
761.00,0.0048
760.00,0.0048
759.00,0.0048
758.00,0.0048
757.00,0.0047
756.00,0.0047
755.00,0.0047
754.00,0.0048
753.00,0.0051
752.00,0.0055
751.00,0.0061
750.00,0.0068
749.00,0.0076
748.00,0.0085
747.00,0.0093
746.00,0.0100
745.00,0.0107
744.00,0.0113
743.00,0.0118
742.00,0.0122
741.00,0.0126
740.00,0.0128
739.00,0.0129
738.00,0.0128
737.00,0.0127
736.00,0.0128
735.00,0.0127
734.00,0.0126
733.00,0.0124
732.00,0.0123
731.00,0.0123
730.00,0.0124
729.00,0.0125
728.00,0.0127
727.00,0.0130
726.00,0.0132
725.00,0.0134
724.00,0.0136
723.00,0.0138
722.00,0.0140
721.00,0.0140
720.00,0.0139
719.00,0.0137
718.00,0.0135
717.00,0.0134
716.00,0.0133
715.00,0.0133
714.00,0.0133
713.00,0.0133
712.00,0.0134
711.00,0.0137
710.00,0.0141
709.00,0.0145
708.00,0.0149
707.00,0.0153
706.00,0.0158
705.00,0.0163
704.00,0.0167
703.00,0.0169
702.00,0.0170
701.00,0.0172
700.00,0.0175
699.00,0.0175
698.00,0.0174
697.00,0.0170
696.00,0.0166
695.00,0.0161
694.00,0.0154
693.00,0.0146
692.00,0.0137
691.00,0.0128
690.00,0.0119
689.00,0.0112
688.00,0.0106
687.00,0.0100
686.00,0.0095
685.00,0.0092
684.00,0.0089
683.00,0.0087
682.00,0.0085
681.00,0.0085
680.00,0.0085
679.00,0.0087
678.00,0.0090
677.00,0.0095
676.00,0.0102
675.00,0.0111
674.00,0.0122
673.00,0.0135
672.00,0.0145
671.00,0.0148
670.00,0.0144
669.00,0.0144
668.00,0.0156
667.00,0.0173
666.00,0.0178
665.00,0.0170
664.00,0.0159
663.00,0.0150
662.00,0.0145
661.00,0.0142
660.00,0.0141
659.00,0.0140
658.00,0.0138
657.00,0.0135
656.00,0.0131
655.00,0.0127
654.00,0.0122
653.00,0.0118
652.00,0.0114
651.00,0.0110
650.00,0.0106
649.00,0.0101
648.00,0.0095
647.00,0.0087
646.00,0.0079
645.00,0.0073
644.00,0.0069
643.00,0.0066
642.00,0.0062
641.00,0.0058
640.00,0.0053
639.00,0.0049
638.00,0.0045
637.00,0.0043
636.00,0.0042
635.00,0.0043
634.00,0.0046
633.00,0.0050
632.00,0.0056
631.00,0.0062
630.00,0.0068
629.00,0.0074
628.00,0.0081
627.00,0.0090
626.00,0.0098
625.00,0.0106
624.00,0.0114
623.00,0.0122
622.00,0.0130
621.00,0.0139
620.00,0.0147
619.00,0.0155
618.00,0.0161
617.00,0.0167
616.00,0.0173
615.00,0.0181
614.00,0.0188
613.00,0.0196
612.00,0.0204
611.00,0.0212
610.00,0.0220
609.00,0.0231
608.00,0.0245
607.00,0.0259
606.00,0.0274
605.00,0.0290
604.00,0.0309
603.00,0.0327
602.00,0.0344
601.00,0.0359
600.00,0.0372
599.00,0.0383
598.00,0.0390
597.00,0.0391
596.00,0.0386
595.00,0.0375
594.00,0.0360
593.00,0.0345
592.00,0.0335
591.00,0.0328
590.00,0.0324
589.00,0.0324
588.00,0.0328
587.00,0.0333
586.00,0.0337
585.00,0.0340
584.00,0.0342
583.00,0.0344
582.00,0.0346
581.00,0.0349
580.00,0.0354
579.00,0.0358
578.00,0.0360
577.00,0.0363
576.00,0.0364
575.00,0.0361
574.00,0.0352
573.00,0.0342
572.00,0.0337
571.00,0.0333
570.00,0.0326
569.00,0.0316
568.00,0.0306
567.00,0.0297
566.00,0.0289
565.00,0.0285
564.00,0.0283
563.00,0.0279
562.00,0.0270
561.00,0.0260
560.00,0.0253
559.00,0.0248
558.00,0.0242
557.00,0.0236
556.00,0.0231
555.00,0.0226
554.00,0.0220
553.00,0.0215
552.00,0.0212
551.00,0.0211
550.00,0.0212
549.00,0.0215
548.00,0.0222
547.00,0.0227
546.00,0.0227
545.00,0.0224
544.00,0.0222
543.00,0.0222
542.00,0.0223
541.00,0.0227
540.00,0.0232
539.00,0.0234
538.00,0.0229
537.00,0.0224
536.00,0.0225
535.00,0.0232
534.00,0.0240
533.00,0.0246
532.00,0.0248
531.00,0.0246
530.00,0.0244
529.00,0.0245
528.00,0.0251
527.00,0.0257
526.00,0.0262
525.00,0.0269
524.00,0.0275
523.00,0.0276
522.00,0.0273
521.00,0.0271
520.00,0.0276
519.00,0.0286
518.00,0.0292
517.00,0.0296
516.00,0.0299
515.00,0.0296
514.00,0.0285
513.00,0.0271
512.00,0.0259
511.00,0.0248
510.00,0.0234
509.00,0.0216
508.00,0.0195
507.00,0.0173
506.00,0.0151
505.00,0.0132
504.00,0.0118
503.00,0.0108
502.00,0.0101
501.00,0.0097
500.00,0.0096
499.00,0.0093
498.00,0.0086
497.00,0.0078
496.00,0.0073
495.00,0.0069
494.00,0.0064
493.00,0.0058
492.00,0.0054
491.00,0.0049
490.00,0.0043
489.00,0.0037
488.00,0.0033
487.00,0.0031
486.00,0.0031
485.00,0.0035
484.00,0.0041
483.00,0.0041
482.00,0.0035
481.00,0.0033
480.00,0.0037
479.00,0.0041
478.00,0.0038
477.00,0.0034
476.00,0.0035
475.00,0.0035
474.00,0.0030
473.00,0.0032
472.00,0.0053
471.00,0.0081
470.00,0.0093
469.00,0.0091
468.00,0.0084
467.00,0.0076
466.00,0.0068
465.00,0.0062
464.00,0.0064
463.00,0.0064
462.00,0.0055
461.00,0.0040
460.00,0.0029
459.00,0.0018
458.00,-0.0004
457.00,-0.0037
456.00,-0.0074
455.00,-0.0114
454.00,-0.0157
453.00,-0.0195
452.00,-0.0223
451.00,-0.0248
450.00,-0.0278
