Created as New Dataset,Sample 005 By Administrator Date Monday, June 09 2025
cm-1,A
4000.00,0.0053
3999.00,0.0053
3998.00,0.0053
3997.00,0.0053
3996.00,0.0053
3995.00,0.0053
3994.00,0.0053
3993.00,0.0053
3992.00,0.0053
3991.00,0.0054
3990.00,0.0054
3989.00,0.0054
3988.00,0.0054
3987.00,0.0054
3986.00,0.0054
3985.00,0.0054
3984.00,0.0053
3983.00,0.0053
3982.00,0.0053
3981.00,0.0053
3980.00,0.0053
3979.00,0.0054
3978.00,0.0054
3977.00,0.0055
3976.00,0.0055
3975.00,0.0055
3974.00,0.0055
3973.00,0.0055
3972.00,0.0055
3971.00,0.0055
3970.00,0.0054
3969.00,0.0054
3968.00,0.0054
3967.00,0.0054
3966.00,0.0054
3965.00,0.0055
3964.00,0.0055
3963.00,0.0055
3962.00,0.0056
3961.00,0.0056
3960.00,0.0056
3959.00,0.0056
3958.00,0.0056
3957.00,0.0056
3956.00,0.0056
3955.00,0.0056
3954.00,0.0056
3953.00,0.0056
3952.00,0.0056
3951.00,0.0056
3950.00,0.0057
3949.00,0.0057
3948.00,0.0057
3947.00,0.0057
3946.00,0.0057
3945.00,0.0057
3944.00,0.0057
3943.00,0.0057
3942.00,0.0056
3941.00,0.0055
3940.00,0.0055
3939.00,0.0055
3938.00,0.0056
3937.00,0.0056
3936.00,0.0057
3935.00,0.0058
3934.00,0.0059
3933.00,0.0059
3932.00,0.0059
3931.00,0.0058
3930.00,0.0058
3929.00,0.0057
3928.00,0.0057
3927.00,0.0057
3926.00,0.0057
3925.00,0.0057
3924.00,0.0056
3923.00,0.0057
3922.00,0.0058
3921.00,0.0059
3920.00,0.0060
3919.00,0.0061
3918.00,0.0060
3917.00,0.0060
3916.00,0.0059
3915.00,0.0058
3914.00,0.0057
3913.00,0.0056
3912.00,0.0055
3911.00,0.0055
3910.00,0.0055
3909.00,0.0055
3908.00,0.0056
3907.00,0.0057
3906.00,0.0058
3905.00,0.0060
3904.00,0.0062
3903.00,0.0064
3902.00,0.0066
3901.00,0.0066
3900.00,0.0066
3899.00,0.0064
3898.00,0.0062
3897.00,0.0060
3896.00,0.0060
3895.00,0.0059
3894.00,0.0059
3893.00,0.0059
3892.00,0.0058
3891.00,0.0058
3890.00,0.0058
3889.00,0.0059
3888.00,0.0060
3887.00,0.0062
3886.00,0.0062
3885.00,0.0062
3884.00,0.0061
3883.00,0.0061
3882.00,0.0062
3881.00,0.0062
3880.00,0.0061
3879.00,0.0059
3878.00,0.0059
3877.00,0.0059
3876.00,0.0060
3875.00,0.0061
3874.00,0.0060
3873.00,0.0060
3872.00,0.0061
3871.00,0.0062
3870.00,0.0063
3869.00,0.0062
3868.00,0.0062
3867.00,0.0063
3866.00,0.0064
3865.00,0.0065
3864.00,0.0064
3863.00,0.0062
3862.00,0.0062
3861.00,0.0062
3860.00,0.0062
3859.00,0.0061
3858.00,0.0058
3857.00,0.0056
3856.00,0.0054
3855.00,0.0055
3854.00,0.0058
3853.00,0.0059
3852.00,0.0061
3851.00,0.0062
3850.00,0.0063
3849.00,0.0063
3848.00,0.0062
3847.00,0.0061
3846.00,0.0061
3845.00,0.0060
3844.00,0.0060
3843.00,0.0060
3842.00,0.0061
3841.00,0.0061
3840.00,0.0062
3839.00,0.0063
3838.00,0.0063
3837.00,0.0064
3836.00,0.0064
3835.00,0.0063
3834.00,0.0063
3833.00,0.0063
3832.00,0.0062
3831.00,0.0061
3830.00,0.0060
3829.00,0.0060
3828.00,0.0060
3827.00,0.0059
3826.00,0.0058
3825.00,0.0058
3824.00,0.0058
3823.00,0.0061
3822.00,0.0063
3821.00,0.0063
3820.00,0.0062
3819.00,0.0062
3818.00,0.0062
3817.00,0.0063
3816.00,0.0062
3815.00,0.0060
3814.00,0.0059
3813.00,0.0058
3812.00,0.0057
3811.00,0.0056
3810.00,0.0055
3809.00,0.0055
3808.00,0.0056
3807.00,0.0056
3806.00,0.0057
3805.00,0.0058
3804.00,0.0059
3803.00,0.0061
3802.00,0.0062
3801.00,0.0061
3800.00,0.0061
3799.00,0.0061
3798.00,0.0062
3797.00,0.0062
3796.00,0.0061
3795.00,0.0059
3794.00,0.0058
3793.00,0.0057
3792.00,0.0057
3791.00,0.0056
3790.00,0.0055
3789.00,0.0055
3788.00,0.0055
3787.00,0.0055
3786.00,0.0055
3785.00,0.0055
3784.00,0.0055
3783.00,0.0056
3782.00,0.0057
3781.00,0.0058
3780.00,0.0058
3779.00,0.0057
3778.00,0.0056
3777.00,0.0055
3776.00,0.0056
3775.00,0.0056
3774.00,0.0057
3773.00,0.0057
3772.00,0.0058
3771.00,0.0059
3770.00,0.0059
3769.00,0.0060
3768.00,0.0060
3767.00,0.0061
3766.00,0.0061
3765.00,0.0061
3764.00,0.0061
3763.00,0.0061
3762.00,0.0062
3761.00,0.0064
3760.00,0.0064
3759.00,0.0064
3758.00,0.0064
3757.00,0.0065
3756.00,0.0066
3755.00,0.0066
3754.00,0.0067
3753.00,0.0068
3752.00,0.0068
3751.00,0.0069
3750.00,0.0070
3749.00,0.0072
3748.00,0.0073
3747.00,0.0073
3746.00,0.0074
3745.00,0.0075
3744.00,0.0075
3743.00,0.0074
3742.00,0.0073
3741.00,0.0073
3740.00,0.0074
3739.00,0.0075
3738.00,0.0077
3737.00,0.0079
3736.00,0.0079
3735.00,0.0077
3734.00,0.0075
3733.00,0.0074
3732.00,0.0073
3731.00,0.0073
3730.00,0.0072
3729.00,0.0072
3728.00,0.0072
3727.00,0.0072
3726.00,0.0072
3725.00,0.0072
3724.00,0.0072
3723.00,0.0072
3722.00,0.0071
3721.00,0.0070
3720.00,0.0069
3719.00,0.0068
3718.00,0.0068
3717.00,0.0067
3716.00,0.0067
3715.00,0.0068
3714.00,0.0070
3713.00,0.0072
3712.00,0.0074
3711.00,0.0075
3710.00,0.0076
3709.00,0.0076
3708.00,0.0077
3707.00,0.0077
3706.00,0.0076
3705.00,0.0076
3704.00,0.0076
3703.00,0.0076
3702.00,0.0075
3701.00,0.0075
3700.00,0.0075
3699.00,0.0076
3698.00,0.0077
3697.00,0.0078
3696.00,0.0078
3695.00,0.0079
3694.00,0.0081
3693.00,0.0083
3692.00,0.0084
3691.00,0.0086
3690.00,0.0087
3689.00,0.0089
3688.00,0.0091
3687.00,0.0093
3686.00,0.0094
3685.00,0.0095
3684.00,0.0096
3683.00,0.0097
3682.00,0.0098
3681.00,0.0100
3680.00,0.0101
3679.00,0.0102
3678.00,0.0104
3677.00,0.0109
3676.00,0.0113
3675.00,0.0117
3674.00,0.0120
3673.00,0.0124
3672.00,0.0128
3671.00,0.0132
3670.00,0.0134
3669.00,0.0134
3668.00,0.0135
3667.00,0.0137
3666.00,0.0139
3665.00,0.0140
3664.00,0.0142
3663.00,0.0143
3662.00,0.0145
3661.00,0.0147
3660.00,0.0150
3659.00,0.0154
3658.00,0.0159
3657.00,0.0164
3656.00,0.0169
3655.00,0.0173
3654.00,0.0178
3653.00,0.0184
3652.00,0.0191
3651.00,0.0197
3650.00,0.0204
3649.00,0.0211
3648.00,0.0217
3647.00,0.0223
3646.00,0.0227
3645.00,0.0230
3644.00,0.0233
3643.00,0.0235
3642.00,0.0238
3641.00,0.0240
3640.00,0.0244
3639.00,0.0249
3638.00,0.0254
3637.00,0.0259
3636.00,0.0265
3635.00,0.0270
3634.00,0.0276
3633.00,0.0281
3632.00,0.0286
3631.00,0.0293
3630.00,0.0302
3629.00,0.0310
3628.00,0.0319
3627.00,0.0326
3626.00,0.0333
3625.00,0.0339
3624.00,0.0343
3623.00,0.0347
3622.00,0.0351
3621.00,0.0356
3620.00,0.0362
3619.00,0.0369
3618.00,0.0376
3617.00,0.0384
3616.00,0.0392
3615.00,0.0399
3614.00,0.0405
3613.00,0.0411
3612.00,0.0417
3611.00,0.0424
3610.00,0.0431
3609.00,0.0438
3608.00,0.0443
3607.00,0.0447
3606.00,0.0452
3605.00,0.0457
3604.00,0.0463
3603.00,0.0468
3602.00,0.0473
3601.00,0.0478
3600.00,0.0484
3599.00,0.0490
3598.00,0.0497
3597.00,0.0504
3596.00,0.0511
3595.00,0.0517
3594.00,0.0524
3593.00,0.0530
3592.00,0.0536
3591.00,0.0543
3590.00,0.0550
3589.00,0.0557
3588.00,0.0564
3587.00,0.0571
3586.00,0.0578
3585.00,0.0585
3584.00,0.0591
3583.00,0.0597
3582.00,0.0601
3581.00,0.0605
3580.00,0.0610
3579.00,0.0615
3578.00,0.0620
3577.00,0.0626
3576.00,0.0632
3575.00,0.0638
3574.00,0.0644
3573.00,0.0650
3572.00,0.0657
3571.00,0.0664
3570.00,0.0672
3569.00,0.0680
3568.00,0.0689
3567.00,0.0697
3566.00,0.0704
3565.00,0.0712
3564.00,0.0719
3563.00,0.0726
3562.00,0.0731
3561.00,0.0736
3560.00,0.0740
3559.00,0.0746
3558.00,0.0751
3557.00,0.0757
3556.00,0.0763
3555.00,0.0769
3554.00,0.0776
3553.00,0.0783
3552.00,0.0790
3551.00,0.0797
3550.00,0.0804
3549.00,0.0812
3548.00,0.0818
3547.00,0.0824
3546.00,0.0830
3545.00,0.0836
3544.00,0.0842
3543.00,0.0848
3542.00,0.0854
3541.00,0.0860
3540.00,0.0865
3539.00,0.0870
3538.00,0.0875
3537.00,0.0880
3536.00,0.0885
3535.00,0.0890
3534.00,0.0896
3533.00,0.0901
3532.00,0.0905
3531.00,0.0910
3530.00,0.0915
3529.00,0.0920
3528.00,0.0926
3527.00,0.0933
3526.00,0.0941
3525.00,0.0947
3524.00,0.0952
3523.00,0.0957
3522.00,0.0960
3521.00,0.0964
3520.00,0.0968
3519.00,0.0972
3518.00,0.0977
3517.00,0.0982
3516.00,0.0987
3515.00,0.0993
3514.00,0.0998
3513.00,0.1003
3512.00,0.1008
3511.00,0.1013
3510.00,0.1017
3509.00,0.1022
3508.00,0.1028
3507.00,0.1034
3506.00,0.1040
3505.00,0.1046
3504.00,0.1050
3503.00,0.1055
3502.00,0.1060
3501.00,0.1065
3500.00,0.1070
3499.00,0.1075
3498.00,0.1080
3497.00,0.1085
3496.00,0.1090
3495.00,0.1095
3494.00,0.1100
3493.00,0.1105
3492.00,0.1110
3491.00,0.1114
3490.00,0.1119
3489.00,0.1123
3488.00,0.1128
3487.00,0.1133
3486.00,0.1138
3485.00,0.1144
3484.00,0.1149
3483.00,0.1154
3482.00,0.1159
3481.00,0.1164
3480.00,0.1169
3479.00,0.1175
3478.00,0.1179
3477.00,0.1184
3476.00,0.1188
3475.00,0.1192
3474.00,0.1197
3473.00,0.1202
3472.00,0.1208
3471.00,0.1213
3470.00,0.1218
3469.00,0.1223
3468.00,0.1228
3467.00,0.1233
3466.00,0.1237
3465.00,0.1242
3464.00,0.1247
3463.00,0.1252
3462.00,0.1256
3461.00,0.1261
3460.00,0.1266
3459.00,0.1271
3458.00,0.1276
3457.00,0.1280
3456.00,0.1285
3455.00,0.1289
3454.00,0.1293
3453.00,0.1298
3452.00,0.1302
3451.00,0.1306
3450.00,0.1310
3449.00,0.1315
3448.00,0.1320
3447.00,0.1325
3446.00,0.1330
3445.00,0.1336
3444.00,0.1341
3443.00,0.1346
3442.00,0.1350
3441.00,0.1355
3440.00,0.1360
3439.00,0.1365
3438.00,0.1370
3437.00,0.1374
3436.00,0.1379
3435.00,0.1383
3434.00,0.1387
3433.00,0.1391
3432.00,0.1396
3431.00,0.1401
3430.00,0.1406
3429.00,0.1410
3428.00,0.1415
3427.00,0.1419
3426.00,0.1423
3425.00,0.1427
3424.00,0.1432
3423.00,0.1436
3422.00,0.1440
3421.00,0.1445
3420.00,0.1449
3419.00,0.1454
3418.00,0.1459
3417.00,0.1463
3416.00,0.1468
3415.00,0.1473
3414.00,0.1477
3413.00,0.1481
3412.00,0.1485
3411.00,0.1488
3410.00,0.1492
3409.00,0.1495
3408.00,0.1499
3407.00,0.1503
3406.00,0.1506
3405.00,0.1510
3404.00,0.1514
3403.00,0.1518
3402.00,0.1521
3401.00,0.1524
3400.00,0.1526
3399.00,0.1528
3398.00,0.1529
3397.00,0.1531
3396.00,0.1533
3395.00,0.1536
3394.00,0.1538
3393.00,0.1540
3392.00,0.1541
3391.00,0.1543
3390.00,0.1544
3389.00,0.1546
3388.00,0.1547
3387.00,0.1548
3386.00,0.1549
3385.00,0.1551
3384.00,0.1552
3383.00,0.1553
3382.00,0.1554
3381.00,0.1555
3380.00,0.1555
3379.00,0.1556
3378.00,0.1556
3377.00,0.1557
3376.00,0.1558
3375.00,0.1558
3374.00,0.1559
3373.00,0.1560
3372.00,0.1561
3371.00,0.1562
3370.00,0.1563
3369.00,0.1563
3368.00,0.1563
3367.00,0.1563
3366.00,0.1563
3365.00,0.1563
3364.00,0.1564
3363.00,0.1564
3362.00,0.1565
3361.00,0.1565
3360.00,0.1565
3359.00,0.1566
3358.00,0.1565
3357.00,0.1565
3356.00,0.1564
3355.00,0.1564
3354.00,0.1564
3353.00,0.1565
3352.00,0.1565
3351.00,0.1564
3350.00,0.1564
3349.00,0.1563
3348.00,0.1562
3347.00,0.1562
3346.00,0.1562
3345.00,0.1561
3344.00,0.1561
3343.00,0.1561
3342.00,0.1561
3341.00,0.1560
3340.00,0.1559
3339.00,0.1558
3338.00,0.1557
3337.00,0.1557
3336.00,0.1556
3335.00,0.1555
3334.00,0.1555
3333.00,0.1554
3332.00,0.1552
3331.00,0.1551
3330.00,0.1549
3329.00,0.1548
3328.00,0.1547
3327.00,0.1547
3326.00,0.1546
3325.00,0.1546
3324.00,0.1545
3323.00,0.1544
3322.00,0.1543
3321.00,0.1542
3320.00,0.1542
3319.00,0.1541
3318.00,0.1541
3317.00,0.1540
3316.00,0.1539
3315.00,0.1538
3314.00,0.1537
3313.00,0.1537
3312.00,0.1536
3311.00,0.1535
3310.00,0.1535
3309.00,0.1534
3308.00,0.1533
3307.00,0.1532
3306.00,0.1532
3305.00,0.1531
3304.00,0.1531
3303.00,0.1530
3302.00,0.1529
3301.00,0.1529
3300.00,0.1528
3299.00,0.1527
3298.00,0.1526
3297.00,0.1525
3296.00,0.1525
3295.00,0.1524
3294.00,0.1523
3293.00,0.1523
3292.00,0.1522
3291.00,0.1522
3290.00,0.1522
3289.00,0.1521
3288.00,0.1520
3287.00,0.1519
3286.00,0.1518
3285.00,0.1517
3284.00,0.1516
3283.00,0.1514
3282.00,0.1513
3281.00,0.1511
3280.00,0.1510
3279.00,0.1508
3278.00,0.1507
3277.00,0.1505
3276.00,0.1503
3275.00,0.1501
3274.00,0.1499
3273.00,0.1497
3272.00,0.1495
3271.00,0.1493
3270.00,0.1491
3269.00,0.1489
3268.00,0.1487
3267.00,0.1484
3266.00,0.1481
3265.00,0.1478
3264.00,0.1475
3263.00,0.1472
3262.00,0.1470
3261.00,0.1467
3260.00,0.1463
3259.00,0.1460
3258.00,0.1457
3257.00,0.1453
3256.00,0.1450
3255.00,0.1446
3254.00,0.1443
3253.00,0.1440
3252.00,0.1437
3251.00,0.1434
3250.00,0.1431
3249.00,0.1428
3248.00,0.1425
3247.00,0.1421
3246.00,0.1418
3245.00,0.1414
3244.00,0.1411
3243.00,0.1407
3242.00,0.1403
3241.00,0.1399
3240.00,0.1396
3239.00,0.1392
3238.00,0.1389
3237.00,0.1385
3236.00,0.1380
3235.00,0.1376
3234.00,0.1372
3233.00,0.1369
3232.00,0.1365
3231.00,0.1361
3230.00,0.1357
3229.00,0.1353
3228.00,0.1349
3227.00,0.1345
3226.00,0.1341
3225.00,0.1337
3224.00,0.1333
3223.00,0.1329
3222.00,0.1324
3221.00,0.1319
3220.00,0.1315
3219.00,0.1311
3218.00,0.1307
3217.00,0.1303
3216.00,0.1299
3215.00,0.1295
3214.00,0.1290
3213.00,0.1286
3212.00,0.1281
3211.00,0.1276
3210.00,0.1272
3209.00,0.1267
3208.00,0.1262
3207.00,0.1257
3206.00,0.1252
3205.00,0.1248
3204.00,0.1243
3203.00,0.1238
3202.00,0.1233
3201.00,0.1228
3200.00,0.1223
3199.00,0.1218
3198.00,0.1214
3197.00,0.1209
3196.00,0.1204
3195.00,0.1199
3194.00,0.1194
3193.00,0.1188
3192.00,0.1183
3191.00,0.1178
3190.00,0.1173
3189.00,0.1167
3188.00,0.1162
3187.00,0.1157
3186.00,0.1151
3185.00,0.1146
3184.00,0.1140
3183.00,0.1135
3182.00,0.1130
3181.00,0.1125
3180.00,0.1119
3179.00,0.1114
3178.00,0.1109
3177.00,0.1103
3176.00,0.1098
3175.00,0.1092
3174.00,0.1086
3173.00,0.1080
3172.00,0.1075
3171.00,0.1069
3170.00,0.1063
3169.00,0.1058
3168.00,0.1052
3167.00,0.1046
3166.00,0.1040
3165.00,0.1034
3164.00,0.1029
3163.00,0.1024
3162.00,0.1018
3161.00,0.1013
3160.00,0.1007
3159.00,0.1002
3158.00,0.0996
3157.00,0.0990
3156.00,0.0984
3155.00,0.0979
3154.00,0.0974
3153.00,0.0968
3152.00,0.0963
3151.00,0.0957
3150.00,0.0952
3149.00,0.0946
3148.00,0.0941
3147.00,0.0936
3146.00,0.0931
3145.00,0.0926
3144.00,0.0920
3143.00,0.0914
3142.00,0.0909
3141.00,0.0904
3140.00,0.0899
3139.00,0.0895
3138.00,0.0890
3137.00,0.0885
3136.00,0.0880
3135.00,0.0875
3134.00,0.0870
3133.00,0.0865
3132.00,0.0860
3131.00,0.0855
3130.00,0.0850
3129.00,0.0846
3128.00,0.0841
3127.00,0.0837
3126.00,0.0832
3125.00,0.0828
3124.00,0.0823
3123.00,0.0818
3122.00,0.0813
3121.00,0.0809
3120.00,0.0805
3119.00,0.0801
3118.00,0.0797
3117.00,0.0793
3116.00,0.0789
3115.00,0.0785
3114.00,0.0781
3113.00,0.0777
3112.00,0.0773
3111.00,0.0768
3110.00,0.0765
3109.00,0.0761
3108.00,0.0758
3107.00,0.0755
3106.00,0.0751
3105.00,0.0748
3104.00,0.0745
3103.00,0.0741
3102.00,0.0738
3101.00,0.0734
3100.00,0.0731
3099.00,0.0728
3098.00,0.0725
3097.00,0.0722
3096.00,0.0719
3095.00,0.0715
3094.00,0.0712
3093.00,0.0709
3092.00,0.0705
3091.00,0.0702
3090.00,0.0700
3089.00,0.0697
3088.00,0.0693
3087.00,0.0690
3086.00,0.0686
3085.00,0.0683
3084.00,0.0680
3083.00,0.0677
3082.00,0.0675
3081.00,0.0672
3080.00,0.0670
3079.00,0.0667
3078.00,0.0665
3077.00,0.0663
3076.00,0.0661
3075.00,0.0658
3074.00,0.0654
3073.00,0.0651
3072.00,0.0648
3071.00,0.0645
3070.00,0.0642
3069.00,0.0639
3068.00,0.0635
3067.00,0.0632
3066.00,0.0630
3065.00,0.0627
3064.00,0.0624
3063.00,0.0621
3062.00,0.0618
3061.00,0.0615
3060.00,0.0612
3059.00,0.0608
3058.00,0.0605
3057.00,0.0601
3056.00,0.0598
3055.00,0.0595
3054.00,0.0591
3053.00,0.0588
3052.00,0.0585
3051.00,0.0582
3050.00,0.0579
3049.00,0.0575
3048.00,0.0572
3047.00,0.0568
3046.00,0.0564
3045.00,0.0561
3044.00,0.0558
3043.00,0.0555
3042.00,0.0552
3041.00,0.0549
3040.00,0.0546
3039.00,0.0543
3038.00,0.0540
3037.00,0.0537
3036.00,0.0534
3035.00,0.0531
3034.00,0.0528
3033.00,0.0526
3032.00,0.0523
3031.00,0.0520
3030.00,0.0517
3029.00,0.0515
3028.00,0.0512
3027.00,0.0509
3026.00,0.0507
3025.00,0.0504
3024.00,0.0501
3023.00,0.0499
3022.00,0.0496
3021.00,0.0494
3020.00,0.0491
3019.00,0.0489
3018.00,0.0487
3017.00,0.0485
3016.00,0.0483
3015.00,0.0481
3014.00,0.0479
3013.00,0.0477
3012.00,0.0476
3011.00,0.0474
3010.00,0.0472
3009.00,0.0470
3008.00,0.0468
3007.00,0.0466
3006.00,0.0465
3005.00,0.0463
3004.00,0.0461
3003.00,0.0460
3002.00,0.0458
3001.00,0.0457
3000.00,0.0455
2999.00,0.0454
2998.00,0.0453
2997.00,0.0452
2996.00,0.0451
2995.00,0.0450
2994.00,0.0450
2993.00,0.0449
2992.00,0.0450
2991.00,0.0450
2990.00,0.0450
2989.00,0.0450
2988.00,0.0450
2987.00,0.0451
2986.00,0.0452
2985.00,0.0453
2984.00,0.0454
2983.00,0.0455
2982.00,0.0455
2981.00,0.0456
2980.00,0.0458
2979.00,0.0459
2978.00,0.0461
2977.00,0.0462
2976.00,0.0464
2975.00,0.0466
2974.00,0.0467
2973.00,0.0469
2972.00,0.0471
2971.00,0.0473
2970.00,0.0474
2969.00,0.0475
2968.00,0.0477
2967.00,0.0478
2966.00,0.0479
2965.00,0.0480
2964.00,0.0480
2963.00,0.0481
2962.00,0.0481
2961.00,0.0482
2960.00,0.0482
2959.00,0.0482
2958.00,0.0481
2957.00,0.0480
2956.00,0.0479
2955.00,0.0477
2954.00,0.0475
2953.00,0.0474
2952.00,0.0472
2951.00,0.0471
2950.00,0.0470
2949.00,0.0469
2948.00,0.0468
2947.00,0.0467
2946.00,0.0466
2945.00,0.0466
2944.00,0.0466
2943.00,0.0467
2942.00,0.0468
2941.00,0.0469
2940.00,0.0470
2939.00,0.0471
2938.00,0.0472
2937.00,0.0473
2936.00,0.0474
2935.00,0.0474
2934.00,0.0474
2933.00,0.0474
2932.00,0.0474
2931.00,0.0474
2930.00,0.0474
2929.00,0.0475
2928.00,0.0475
2927.00,0.0475
2926.00,0.0474
2925.00,0.0474
2924.00,0.0473
2923.00,0.0472
2922.00,0.0470
2921.00,0.0467
2920.00,0.0465
2919.00,0.0461
2918.00,0.0458
2917.00,0.0454
2916.00,0.0451
2915.00,0.0447
2914.00,0.0443
2913.00,0.0439
2912.00,0.0435
2911.00,0.0432
2910.00,0.0429
2909.00,0.0426
2908.00,0.0423
2907.00,0.0420
2906.00,0.0417
2905.00,0.0415
2904.00,0.0412
2903.00,0.0410
2902.00,0.0407
2901.00,0.0405
2900.00,0.0402
2899.00,0.0399
2898.00,0.0396
2897.00,0.0394
2896.00,0.0391
2895.00,0.0389
2894.00,0.0387
2893.00,0.0385
2892.00,0.0383
2891.00,0.0381
2890.00,0.0379
2889.00,0.0377
2888.00,0.0375
2887.00,0.0373
2886.00,0.0371
2885.00,0.0369
2884.00,0.0367
2883.00,0.0366
2882.00,0.0365
2881.00,0.0363
2880.00,0.0362
2879.00,0.0361
2878.00,0.0360
2877.00,0.0359
2876.00,0.0357
2875.00,0.0356
2874.00,0.0354
2873.00,0.0352
2872.00,0.0350
2871.00,0.0348
2870.00,0.0345
2869.00,0.0343
2868.00,0.0340
2867.00,0.0338
2866.00,0.0335
2865.00,0.0333
2864.00,0.0332
2863.00,0.0330
2862.00,0.0328
2861.00,0.0327
2860.00,0.0326
2859.00,0.0325
2858.00,0.0325
2857.00,0.0325
2856.00,0.0325
2855.00,0.0324
2854.00,0.0324
2853.00,0.0323
2852.00,0.0322
2851.00,0.0320
2850.00,0.0316
2849.00,0.0313
2848.00,0.0309
2847.00,0.0304
2846.00,0.0300
2845.00,0.0296
2844.00,0.0292
2843.00,0.0288
2842.00,0.0285
2841.00,0.0282
2840.00,0.0279
2839.00,0.0277
2838.00,0.0274
2837.00,0.0272
2836.00,0.0271
2835.00,0.0269
2834.00,0.0267
2833.00,0.0266
2832.00,0.0264
2831.00,0.0262
2830.00,0.0261
2829.00,0.0260
2828.00,0.0258
2827.00,0.0257
2826.00,0.0256
2825.00,0.0255
2824.00,0.0253
2823.00,0.0252
2822.00,0.0251
2821.00,0.0250
2820.00,0.0249
2819.00,0.0248
2818.00,0.0247
2817.00,0.0246
2816.00,0.0244
2815.00,0.0243
2814.00,0.0242
2813.00,0.0241
2812.00,0.0240
2811.00,0.0239
2810.00,0.0238
2809.00,0.0237
2808.00,0.0236
2807.00,0.0235
2806.00,0.0234
2805.00,0.0233
2804.00,0.0232
2803.00,0.0231
2802.00,0.0230
2801.00,0.0229
2800.00,0.0228
2799.00,0.0226
2798.00,0.0225
2797.00,0.0224
2796.00,0.0224
2795.00,0.0223
2794.00,0.0222
2793.00,0.0221
2792.00,0.0220
2791.00,0.0219
2790.00,0.0218
2789.00,0.0217
2788.00,0.0217
2787.00,0.0216
2786.00,0.0216
2785.00,0.0215
2784.00,0.0214
2783.00,0.0213
2782.00,0.0213
2781.00,0.0212
2780.00,0.0211
2779.00,0.0210
2778.00,0.0209
2777.00,0.0208
2776.00,0.0207
2775.00,0.0206
2774.00,0.0206
2773.00,0.0205
2772.00,0.0205
2771.00,0.0204
2770.00,0.0203
2769.00,0.0203
2768.00,0.0202
2767.00,0.0202
2766.00,0.0201
2765.00,0.0200
2764.00,0.0200
2763.00,0.0199
2762.00,0.0198
2761.00,0.0198
2760.00,0.0197
2759.00,0.0197
2758.00,0.0196
2757.00,0.0196
2756.00,0.0195
2755.00,0.0195
2754.00,0.0194
2753.00,0.0194
2752.00,0.0193
2751.00,0.0192
2750.00,0.0192
2749.00,0.0191
2748.00,0.0191
2747.00,0.0190
2746.00,0.0190
2745.00,0.0189
2744.00,0.0189
2743.00,0.0188
2742.00,0.0188
2741.00,0.0187
2740.00,0.0187
2739.00,0.0186
2738.00,0.0186
2737.00,0.0185
2736.00,0.0185
2735.00,0.0184
2734.00,0.0184
2733.00,0.0184
2732.00,0.0183
2731.00,0.0183
2730.00,0.0182
2729.00,0.0181
2728.00,0.0181
2727.00,0.0180
2726.00,0.0179
2725.00,0.0179
2724.00,0.0178
2723.00,0.0178
2722.00,0.0177
2721.00,0.0177
2720.00,0.0176
2719.00,0.0176
2718.00,0.0176
2717.00,0.0176
2716.00,0.0175
2715.00,0.0175
2714.00,0.0174
2713.00,0.0173
2712.00,0.0173
2711.00,0.0172
2710.00,0.0172
2709.00,0.0171
2708.00,0.0171
2707.00,0.0171
2706.00,0.0170
2705.00,0.0170
2704.00,0.0170
2703.00,0.0170
2702.00,0.0169
2701.00,0.0169
2700.00,0.0168
2699.00,0.0168
2698.00,0.0168
2697.00,0.0167
2696.00,0.0167
2695.00,0.0167
2694.00,0.0166
2693.00,0.0166
2692.00,0.0165
2691.00,0.0165
2690.00,0.0164
2689.00,0.0164
2688.00,0.0163
2687.00,0.0163
2686.00,0.0163
2685.00,0.0162
2684.00,0.0162
2683.00,0.0162
2682.00,0.0162
2681.00,0.0162
2680.00,0.0161
2679.00,0.0161
2678.00,0.0161
2677.00,0.0160
2676.00,0.0160
2675.00,0.0159
2674.00,0.0159
2673.00,0.0159
2672.00,0.0158
2671.00,0.0158
2670.00,0.0158
2669.00,0.0158
2668.00,0.0158
2667.00,0.0158
2666.00,0.0157
2665.00,0.0157
2664.00,0.0157
2663.00,0.0157
2662.00,0.0157
2661.00,0.0158
2660.00,0.0158
2659.00,0.0157
2658.00,0.0157
2657.00,0.0157
2656.00,0.0156
2655.00,0.0155
2654.00,0.0155
2653.00,0.0154
2652.00,0.0154
2651.00,0.0154
2650.00,0.0154
2649.00,0.0153
2648.00,0.0153
2647.00,0.0152
2646.00,0.0152
2645.00,0.0151
2644.00,0.0151
2643.00,0.0151
2642.00,0.0150
2641.00,0.0150
2640.00,0.0150
2639.00,0.0149
2638.00,0.0148
2637.00,0.0147
2636.00,0.0147
2635.00,0.0146
2634.00,0.0146
2633.00,0.0145
2632.00,0.0145
2631.00,0.0144
2630.00,0.0144
2629.00,0.0144
2628.00,0.0144
2627.00,0.0143
2626.00,0.0142
2625.00,0.0142
2624.00,0.0142
2623.00,0.0141
2622.00,0.0141
2621.00,0.0140
2620.00,0.0140
2619.00,0.0139
2618.00,0.0139
2617.00,0.0139
2616.00,0.0138
2615.00,0.0138
2614.00,0.0137
2613.00,0.0137
2612.00,0.0136
2611.00,0.0136
2610.00,0.0136
2609.00,0.0136
2608.00,0.0135
2607.00,0.0135
2606.00,0.0135
2605.00,0.0135
2604.00,0.0134
2603.00,0.0134
2602.00,0.0133
2601.00,0.0132
2600.00,0.0132
2599.00,0.0132
2598.00,0.0132
2597.00,0.0132
2596.00,0.0132
2595.00,0.0132
2594.00,0.0131
2593.00,0.0131
2592.00,0.0130
2591.00,0.0130
2590.00,0.0129
2589.00,0.0129
2588.00,0.0128
2587.00,0.0127
2586.00,0.0127
2585.00,0.0127
2584.00,0.0127
2583.00,0.0127
2582.00,0.0127
2581.00,0.0127
2580.00,0.0127
2579.00,0.0127
2578.00,0.0127
2577.00,0.0127
2576.00,0.0127
2575.00,0.0126
2574.00,0.0125
2573.00,0.0125
2572.00,0.0124
2571.00,0.0124
2570.00,0.0123
2569.00,0.0123
2568.00,0.0123
2567.00,0.0122
2566.00,0.0122
2565.00,0.0122
2564.00,0.0123
2563.00,0.0123
2562.00,0.0123
2561.00,0.0122
2560.00,0.0122
2559.00,0.0122
2558.00,0.0122
2557.00,0.0121
2556.00,0.0121
2555.00,0.0120
2554.00,0.0120
2553.00,0.0119
2552.00,0.0120
2551.00,0.0120
2550.00,0.0120
2549.00,0.0120
2548.00,0.0119
2547.00,0.0119
2546.00,0.0119
2545.00,0.0118
2544.00,0.0118
2543.00,0.0118
2542.00,0.0117
2541.00,0.0117
2540.00,0.0117
2539.00,0.0117
2538.00,0.0117
2537.00,0.0117
2536.00,0.0117
2535.00,0.0117
2534.00,0.0118
2533.00,0.0118
2532.00,0.0117
2531.00,0.0116
2530.00,0.0116
2529.00,0.0116
2528.00,0.0116
2527.00,0.0116
2526.00,0.0117
2525.00,0.0116
2524.00,0.0116
2523.00,0.0115
2522.00,0.0115
2521.00,0.0115
2520.00,0.0115
2519.00,0.0115
2518.00,0.0115
2517.00,0.0114
2516.00,0.0114
2515.00,0.0114
2514.00,0.0114
2513.00,0.0114
2512.00,0.0115
2511.00,0.0115
2510.00,0.0115
2509.00,0.0114
2508.00,0.0114
2507.00,0.0114
2506.00,0.0114
2505.00,0.0114
2504.00,0.0114
2503.00,0.0114
2502.00,0.0113
2501.00,0.0113
2500.00,0.0112
2499.00,0.0112
2498.00,0.0112
2497.00,0.0113
2496.00,0.0113
2495.00,0.0113
2494.00,0.0113
2493.00,0.0112
2492.00,0.0112
2491.00,0.0112
2490.00,0.0113
2489.00,0.0113
2488.00,0.0114
2487.00,0.0113
2486.00,0.0113
2485.00,0.0113
2484.00,0.0112
2483.00,0.0112
2482.00,0.0112
2481.00,0.0112
2480.00,0.0112
2479.00,0.0112
2478.00,0.0112
2477.00,0.0112
2476.00,0.0111
2475.00,0.0111
2474.00,0.0110
2473.00,0.0110
2472.00,0.0111
2471.00,0.0111
2470.00,0.0111
2469.00,0.0111
2468.00,0.0111
2467.00,0.0111
2466.00,0.0111
2465.00,0.0110
2464.00,0.0110
2463.00,0.0110
2462.00,0.0110
2461.00,0.0111
2460.00,0.0111
2459.00,0.0112
2458.00,0.0112
2457.00,0.0112
2456.00,0.0112
2455.00,0.0112
2454.00,0.0112
2453.00,0.0111
2452.00,0.0110
2451.00,0.0110
2450.00,0.0110
2449.00,0.0110
2448.00,0.0109
2447.00,0.0109
2446.00,0.0109
2445.00,0.0109
2444.00,0.0109
2443.00,0.0109
2442.00,0.0109
2441.00,0.0109
2440.00,0.0109
2439.00,0.0109
2438.00,0.0109
2437.00,0.0108
2436.00,0.0108
2435.00,0.0108
2434.00,0.0108
2433.00,0.0108
2432.00,0.0108
2431.00,0.0108
2430.00,0.0108
2429.00,0.0107
2428.00,0.0108
2427.00,0.0108
2426.00,0.0108
2425.00,0.0109
2424.00,0.0109
2423.00,0.0108
2422.00,0.0108
2421.00,0.0107
2420.00,0.0107
2419.00,0.0107
2418.00,0.0108
2417.00,0.0108
2416.00,0.0108
2415.00,0.0108
2414.00,0.0108
2413.00,0.0108
2412.00,0.0108
2411.00,0.0108
2410.00,0.0108
2409.00,0.0108
2408.00,0.0108
2407.00,0.0108
2406.00,0.0107
2405.00,0.0107
2404.00,0.0107
2403.00,0.0106
2402.00,0.0106
2401.00,0.0106
2400.00,0.0107
2399.00,0.0107
2398.00,0.0107
2397.00,0.0107
2396.00,0.0107
2395.00,0.0108
2394.00,0.0108
2393.00,0.0109
2392.00,0.0109
2391.00,0.0109
2390.00,0.0109
2389.00,0.0109
2388.00,0.0108
2387.00,0.0108
2386.00,0.0109
2385.00,0.0109
2384.00,0.0109
2383.00,0.0109
2382.00,0.0109
2381.00,0.0109
2380.00,0.0109
2379.00,0.0109
2378.00,0.0109
2377.00,0.0109
2376.00,0.0110
2375.00,0.0110
2374.00,0.0111
2373.00,0.0111
2372.00,0.0111
2371.00,0.0111
2370.00,0.0111
2369.00,0.0110
2368.00,0.0110
2367.00,0.0111
2366.00,0.0112
2365.00,0.0113
2364.00,0.0114
2363.00,0.0115
2362.00,0.0116
2361.00,0.0116
2360.00,0.0115
2359.00,0.0115
2358.00,0.0114
2357.00,0.0115
2356.00,0.0115
2355.00,0.0116
2354.00,0.0116
2353.00,0.0116
2352.00,0.0115
2351.00,0.0114
2350.00,0.0113
2349.00,0.0115
2348.00,0.0118
2347.00,0.0121
2346.00,0.0124
2345.00,0.0124
2344.00,0.0122
2343.00,0.0121
2342.00,0.0121
2341.00,0.0121
2340.00,0.0121
2339.00,0.0121
2338.00,0.0120
2337.00,0.0120
2336.00,0.0120
2335.00,0.0119
2334.00,0.0119
2333.00,0.0119
2332.00,0.0119
2331.00,0.0118
2330.00,0.0117
2329.00,0.0118
2328.00,0.0120
2327.00,0.0123
2326.00,0.0127
2325.00,0.0131
2324.00,0.0133
2323.00,0.0132
2322.00,0.0130
2321.00,0.0128
2320.00,0.0126
2319.00,0.0125
2318.00,0.0124
2317.00,0.0124
2316.00,0.0124
2315.00,0.0124
2314.00,0.0123
2313.00,0.0123
2312.00,0.0122
2311.00,0.0122
2310.00,0.0121
2309.00,0.0121
2308.00,0.0121
2307.00,0.0121
2306.00,0.0120
2305.00,0.0121
2304.00,0.0121
2303.00,0.0122
2302.00,0.0123
2301.00,0.0123
2300.00,0.0124
2299.00,0.0125
2298.00,0.0125
2297.00,0.0126
2296.00,0.0126
2295.00,0.0126
2294.00,0.0126
2293.00,0.0127
2292.00,0.0127
2291.00,0.0128
2290.00,0.0129
2289.00,0.0130
2288.00,0.0130
2287.00,0.0130
2286.00,0.0130
2285.00,0.0130
2284.00,0.0130
2283.00,0.0131
2282.00,0.0131
2281.00,0.0131
2280.00,0.0131
2279.00,0.0130
2278.00,0.0128
2277.00,0.0127
2276.00,0.0125
2275.00,0.0124
2274.00,0.0124
2273.00,0.0124
2272.00,0.0125
2271.00,0.0125
2270.00,0.0125
2269.00,0.0125
2268.00,0.0124
2267.00,0.0123
2266.00,0.0123
2265.00,0.0122
2264.00,0.0122
2263.00,0.0122
2262.00,0.0122
2261.00,0.0122
2260.00,0.0121
2259.00,0.0121
2258.00,0.0121
2257.00,0.0121
2256.00,0.0121
2255.00,0.0121
2254.00,0.0121
2253.00,0.0121
2252.00,0.0121
2251.00,0.0121
2250.00,0.0120
2249.00,0.0120
2248.00,0.0120
2247.00,0.0121
2246.00,0.0121
2245.00,0.0120
2244.00,0.0120
2243.00,0.0120
2242.00,0.0120
2241.00,0.0121
2240.00,0.0121
2239.00,0.0120
2238.00,0.0118
2237.00,0.0118
2236.00,0.0118
2235.00,0.0118
2234.00,0.0119
2233.00,0.0119
2232.00,0.0118
2231.00,0.0118
2230.00,0.0119
2229.00,0.0119
2228.00,0.0118
2227.00,0.0118
2226.00,0.0118
2225.00,0.0119
2224.00,0.0119
2223.00,0.0119
2222.00,0.0118
2221.00,0.0119
2220.00,0.0120
2219.00,0.0120
2218.00,0.0119
2217.00,0.0119
2216.00,0.0119
2215.00,0.0119
2214.00,0.0119
2213.00,0.0118
2212.00,0.0117
2211.00,0.0117
2210.00,0.0117
2209.00,0.0117
2208.00,0.0117
2207.00,0.0117
2206.00,0.0115
2205.00,0.0115
2204.00,0.0115
2203.00,0.0116
2202.00,0.0118
2201.00,0.0119
2200.00,0.0118
2199.00,0.0117
2198.00,0.0114
2197.00,0.0112
2196.00,0.0110
2195.00,0.0109
2194.00,0.0110
2193.00,0.0111
2192.00,0.0113
2191.00,0.0115
2190.00,0.0118
2189.00,0.0121
2188.00,0.0122
2187.00,0.0122
2186.00,0.0120
2185.00,0.0117
2184.00,0.0116
2183.00,0.0114
2182.00,0.0113
2181.00,0.0114
2180.00,0.0115
2179.00,0.0115
2178.00,0.0114
2177.00,0.0114
2176.00,0.0114
2175.00,0.0113
2174.00,0.0112
2173.00,0.0111
2172.00,0.0109
2171.00,0.0109
2170.00,0.0112
2169.00,0.0116
2168.00,0.0120
2167.00,0.0121
2166.00,0.0119
2165.00,0.0117
2164.00,0.0114
2163.00,0.0113
2162.00,0.0112
2161.00,0.0109
2160.00,0.0101
2159.00,0.0088
2158.00,0.0076
2157.00,0.0069
2156.00,0.0069
2155.00,0.0071
2154.00,0.0075
2153.00,0.0079
2152.00,0.0083
2151.00,0.0087
2150.00,0.0091
2149.00,0.0094
2148.00,0.0095
2147.00,0.0094
2146.00,0.0092
2145.00,0.0091
2144.00,0.0092
2143.00,0.0094
2142.00,0.0095
2141.00,0.0095
2140.00,0.0095
2139.00,0.0095
2138.00,0.0097
2137.00,0.0098
2136.00,0.0098
2135.00,0.0098
2134.00,0.0097
2133.00,0.0098
2132.00,0.0100
2131.00,0.0102
2130.00,0.0105
2129.00,0.0108
2128.00,0.0110
2127.00,0.0112
2126.00,0.0113
2125.00,0.0114
2124.00,0.0115
2123.00,0.0116
2122.00,0.0118
2121.00,0.0118
2120.00,0.0118
2119.00,0.0118
2118.00,0.0118
2117.00,0.0120
2116.00,0.0123
2115.00,0.0125
2114.00,0.0126
2113.00,0.0126
2112.00,0.0125
2111.00,0.0124
2110.00,0.0124
2109.00,0.0125
2108.00,0.0126
2107.00,0.0127
2106.00,0.0127
2105.00,0.0127
2104.00,0.0127
2103.00,0.0126
2102.00,0.0125
2101.00,0.0125
2100.00,0.0125
2099.00,0.0124
2098.00,0.0123
2097.00,0.0122
2096.00,0.0120
2095.00,0.0117
2094.00,0.0115
2093.00,0.0115
2092.00,0.0115
2091.00,0.0117
2090.00,0.0118
2089.00,0.0119
2088.00,0.0119
2087.00,0.0119
2086.00,0.0119
2085.00,0.0120
2084.00,0.0120
2083.00,0.0121
2082.00,0.0121
2081.00,0.0121
2080.00,0.0122
2079.00,0.0122
2078.00,0.0123
2077.00,0.0122
2076.00,0.0121
2075.00,0.0120
2074.00,0.0119
2073.00,0.0119
2072.00,0.0118
2071.00,0.0117
2070.00,0.0115
2069.00,0.0114
2068.00,0.0113
2067.00,0.0112
2066.00,0.0110
2065.00,0.0109
2064.00,0.0109
2063.00,0.0108
2062.00,0.0108
2061.00,0.0108
2060.00,0.0108
2059.00,0.0108
2058.00,0.0107
2057.00,0.0107
2056.00,0.0106
2055.00,0.0105
2054.00,0.0105
2053.00,0.0107
2052.00,0.0109
2051.00,0.0110
2050.00,0.0108
2049.00,0.0104
2048.00,0.0099
2047.00,0.0096
2046.00,0.0095
2045.00,0.0096
2044.00,0.0097
2043.00,0.0098
2042.00,0.0098
2041.00,0.0098
2040.00,0.0098
2039.00,0.0098
2038.00,0.0098
2037.00,0.0097
2036.00,0.0095
2035.00,0.0090
2034.00,0.0083
2033.00,0.0079
2032.00,0.0078
2031.00,0.0078
2030.00,0.0079
2029.00,0.0078
2028.00,0.0077
2027.00,0.0074
2026.00,0.0072
2025.00,0.0073
2024.00,0.0075
2023.00,0.0078
2022.00,0.0079
2021.00,0.0081
2020.00,0.0082
2019.00,0.0081
2018.00,0.0080
2017.00,0.0079
2016.00,0.0079
2015.00,0.0079
2014.00,0.0078
2013.00,0.0077
2012.00,0.0075
2011.00,0.0074
2010.00,0.0074
2009.00,0.0076
2008.00,0.0076
2007.00,0.0074
2006.00,0.0072
2005.00,0.0071
2004.00,0.0072
2003.00,0.0074
2002.00,0.0076
2001.00,0.0078
2000.00,0.0081
1999.00,0.0084
1998.00,0.0086
1997.00,0.0088
1996.00,0.0089
1995.00,0.0088
1994.00,0.0088
1993.00,0.0088
1992.00,0.0089
1991.00,0.0090
1990.00,0.0090
1989.00,0.0089
1988.00,0.0087
1987.00,0.0085
1986.00,0.0084
1985.00,0.0084
1984.00,0.0087
1983.00,0.0091
1982.00,0.0093
1981.00,0.0093
1980.00,0.0091
1979.00,0.0087
1978.00,0.0082
1977.00,0.0080
1976.00,0.0079
1975.00,0.0077
1974.00,0.0075
1973.00,0.0073
1972.00,0.0073
1971.00,0.0073
1970.00,0.0073
1969.00,0.0072
1968.00,0.0071
1967.00,0.0071
1966.00,0.0072
1965.00,0.0074
1964.00,0.0077
1963.00,0.0078
1962.00,0.0078
1961.00,0.0079
1960.00,0.0079
1959.00,0.0077
1958.00,0.0075
1957.00,0.0074
1956.00,0.0076
1955.00,0.0078
1954.00,0.0079
1953.00,0.0078
1952.00,0.0078
1951.00,0.0077
1950.00,0.0076
1949.00,0.0076
1948.00,0.0077
1947.00,0.0078
1946.00,0.0079
1945.00,0.0081
1944.00,0.0082
1943.00,0.0083
1942.00,0.0082
1941.00,0.0081
1940.00,0.0081
1939.00,0.0081
1938.00,0.0081
1937.00,0.0081
1936.00,0.0082
1935.00,0.0082
1934.00,0.0082
1933.00,0.0081
1932.00,0.0080
1931.00,0.0080
1930.00,0.0079
1929.00,0.0079
1928.00,0.0080
1927.00,0.0080
1926.00,0.0081
1925.00,0.0081
1924.00,0.0082
1923.00,0.0083
1922.00,0.0084
1921.00,0.0085
1920.00,0.0086
1919.00,0.0086
1918.00,0.0085
1917.00,0.0084
1916.00,0.0084
1915.00,0.0084
1914.00,0.0084
1913.00,0.0085
1912.00,0.0085
1911.00,0.0086
1910.00,0.0085
1909.00,0.0083
1908.00,0.0082
1907.00,0.0080
1906.00,0.0080
1905.00,0.0079
1904.00,0.0079
1903.00,0.0079
1902.00,0.0079
1901.00,0.0081
1900.00,0.0082
1899.00,0.0083
1898.00,0.0083
1897.00,0.0083
1896.00,0.0083
1895.00,0.0083
1894.00,0.0082
1893.00,0.0081
1892.00,0.0080
1891.00,0.0080
1890.00,0.0079
1889.00,0.0079
1888.00,0.0079
1887.00,0.0079
1886.00,0.0080
1885.00,0.0080
1884.00,0.0079
1883.00,0.0079
1882.00,0.0079
1881.00,0.0079
1880.00,0.0079
1879.00,0.0079
1878.00,0.0078
1877.00,0.0077
1876.00,0.0077
1875.00,0.0077
1874.00,0.0078
1873.00,0.0078
1872.00,0.0079
1871.00,0.0080
1870.00,0.0080
1869.00,0.0080
1868.00,0.0079
1867.00,0.0077
1866.00,0.0077
1865.00,0.0077
1864.00,0.0077
1863.00,0.0077
1862.00,0.0076
1861.00,0.0075
1860.00,0.0076
1859.00,0.0076
1858.00,0.0076
1857.00,0.0076
1856.00,0.0076
1855.00,0.0076
1854.00,0.0075
1853.00,0.0075
1852.00,0.0075
1851.00,0.0075
1850.00,0.0075
1849.00,0.0075
1848.00,0.0075
1847.00,0.0075
1846.00,0.0077
1845.00,0.0078
1844.00,0.0078
1843.00,0.0076
1842.00,0.0075
1841.00,0.0075
1840.00,0.0075
1839.00,0.0075
1838.00,0.0075
1837.00,0.0074
1836.00,0.0074
1835.00,0.0074
1834.00,0.0074
1833.00,0.0075
1832.00,0.0076
1831.00,0.0078
1830.00,0.0078
1829.00,0.0077
1828.00,0.0076
1827.00,0.0077
1826.00,0.0077
1825.00,0.0077
1824.00,0.0077
1823.00,0.0076
1822.00,0.0076
1821.00,0.0076
1820.00,0.0076
1819.00,0.0075
1818.00,0.0074
1817.00,0.0073
1816.00,0.0073
1815.00,0.0073
1814.00,0.0074
1813.00,0.0075
1812.00,0.0076
1811.00,0.0076
1810.00,0.0076
1809.00,0.0076
1808.00,0.0076
1807.00,0.0075
1806.00,0.0075
1805.00,0.0075
1804.00,0.0075
1803.00,0.0075
1802.00,0.0075
1801.00,0.0076
1800.00,0.0076
1799.00,0.0076
1798.00,0.0076
1797.00,0.0076
1796.00,0.0076
1795.00,0.0076
1794.00,0.0077
1793.00,0.0078
1792.00,0.0077
1791.00,0.0076
1790.00,0.0075
1789.00,0.0075
1788.00,0.0075
1787.00,0.0075
1786.00,0.0075
1785.00,0.0074
1784.00,0.0074
1783.00,0.0074
1782.00,0.0075
1781.00,0.0075
1780.00,0.0075
1779.00,0.0075
1778.00,0.0075
1777.00,0.0075
1776.00,0.0075
1775.00,0.0075
1774.00,0.0076
1773.00,0.0077
1772.00,0.0077
1771.00,0.0076
1770.00,0.0076
1769.00,0.0076
1768.00,0.0076
1767.00,0.0075
1766.00,0.0074
1765.00,0.0074
1764.00,0.0075
1763.00,0.0075
1762.00,0.0075
1761.00,0.0075
1760.00,0.0076
1759.00,0.0078
1758.00,0.0080
1757.00,0.0082
1756.00,0.0083
1755.00,0.0084
1754.00,0.0087
1753.00,0.0090
1752.00,0.0095
1751.00,0.0099
1750.00,0.0101
1749.00,0.0104
1748.00,0.0107
1747.00,0.0110
1746.00,0.0111
1745.00,0.0113
1744.00,0.0115
1743.00,0.0117
1742.00,0.0118
1741.00,0.0120
1740.00,0.0123
1739.00,0.0124
1738.00,0.0124
1737.00,0.0125
1736.00,0.0129
1735.00,0.0133
1734.00,0.0135
1733.00,0.0135
1732.00,0.0137
1731.00,0.0139
1730.00,0.0141
1729.00,0.0143
1728.00,0.0144
1727.00,0.0146
1726.00,0.0148
1725.00,0.0151
1724.00,0.0154
1723.00,0.0157
1722.00,0.0160
1721.00,0.0162
1720.00,0.0166
1719.00,0.0171
1718.00,0.0177
1717.00,0.0183
1716.00,0.0189
1715.00,0.0193
1714.00,0.0197
1713.00,0.0200
1712.00,0.0204
1711.00,0.0208
1710.00,0.0213
1709.00,0.0218
1708.00,0.0225
1707.00,0.0233
1706.00,0.0241
1705.00,0.0249
1704.00,0.0255
1703.00,0.0261
1702.00,0.0269
1701.00,0.0282
1700.00,0.0301
1699.00,0.0318
1698.00,0.0333
1697.00,0.0349
1696.00,0.0368
1695.00,0.0385
1694.00,0.0401
1693.00,0.0416
1692.00,0.0433
1691.00,0.0450
1690.00,0.0469
1689.00,0.0488
1688.00,0.0505
1687.00,0.0521
1686.00,0.0538
1685.00,0.0562
1684.00,0.0592
1683.00,0.0619
1682.00,0.0639
1681.00,0.0656
1680.00,0.0673
1679.00,0.0689
1678.00,0.0703
1677.00,0.0719
1676.00,0.0741
1675.00,0.0766
1674.00,0.0789
1673.00,0.0809
1672.00,0.0828
1671.00,0.0848
1670.00,0.0872
1669.00,0.0899
1668.00,0.0925
1667.00,0.0946
1666.00,0.0964
1665.00,0.0982
1664.00,0.1003
1663.00,0.1030
1662.00,0.1058
1661.00,0.1084
1660.00,0.1108
1659.00,0.1129
1658.00,0.1146
1657.00,0.1160
1656.00,0.1170
1655.00,0.1180
1654.00,0.1198
1653.00,0.1233
1652.00,0.1269
1651.00,0.1291
1650.00,0.1299
1649.00,0.1303
1648.00,0.1309
1647.00,0.1321
1646.00,0.1334
1645.00,0.1346
1644.00,0.1354
1643.00,0.1358
1642.00,0.1360
1641.00,0.1361
1640.00,0.1363
1639.00,0.1363
1638.00,0.1361
1637.00,0.1360
1636.00,0.1363
1635.00,0.1369
1634.00,0.1372
1633.00,0.1369
1632.00,0.1363
1631.00,0.1353
1630.00,0.1342
1629.00,0.1330
1628.00,0.1319
1627.00,0.1308
1626.00,0.1296
1625.00,0.1281
1624.00,0.1266
1623.00,0.1250
1622.00,0.1233
1621.00,0.1216
1620.00,0.1197
1619.00,0.1176
1618.00,0.1153
1617.00,0.1127
1616.00,0.1103
1615.00,0.1081
1614.00,0.1059
1613.00,0.1036
1612.00,0.1012
1611.00,0.0987
1610.00,0.0964
1609.00,0.0941
1608.00,0.0919
1607.00,0.0898
1606.00,0.0878
1605.00,0.0857
1604.00,0.0837
1603.00,0.0818
1602.00,0.0799
1601.00,0.0780
1600.00,0.0762
1599.00,0.0744
1598.00,0.0728
1597.00,0.0711
1596.00,0.0695
1595.00,0.0680
1594.00,0.0666
1593.00,0.0651
1592.00,0.0637
1591.00,0.0624
1590.00,0.0612
1589.00,0.0600
1588.00,0.0589
1587.00,0.0579
1586.00,0.0570
1585.00,0.0561
1584.00,0.0553
1583.00,0.0546
1582.00,0.0540
1581.00,0.0535
1580.00,0.0529
1579.00,0.0524
1578.00,0.0521
1577.00,0.0519
1576.00,0.0518
1575.00,0.0518
1574.00,0.0518
1573.00,0.0517
1572.00,0.0516
1571.00,0.0515
1570.00,0.0517
1569.00,0.0521
1568.00,0.0525
1567.00,0.0529
1566.00,0.0532
1565.00,0.0536
1564.00,0.0538
1563.00,0.0539
1562.00,0.0539
1561.00,0.0540
1560.00,0.0547
1559.00,0.0564
1558.00,0.0583
1557.00,0.0594
1556.00,0.0601
1555.00,0.0607
1554.00,0.0613
1553.00,0.0618
1552.00,0.0623
1551.00,0.0628
1550.00,0.0633
1549.00,0.0636
1548.00,0.0638
1547.00,0.0639
1546.00,0.0639
1545.00,0.0638
1544.00,0.0636
1543.00,0.0633
1542.00,0.0631
1541.00,0.0629
1540.00,0.0625
1539.00,0.0619
1538.00,0.0612
1537.00,0.0605
1536.00,0.0597
1535.00,0.0588
1534.00,0.0577
1533.00,0.0567
1532.00,0.0557
1531.00,0.0549
1530.00,0.0541
1529.00,0.0531
1528.00,0.0520
1527.00,0.0510
1526.00,0.0499
1525.00,0.0490
1524.00,0.0481
1523.00,0.0473
1522.00,0.0464
1521.00,0.0456
1520.00,0.0448
1519.00,0.0440
1518.00,0.0432
1517.00,0.0422
1516.00,0.0409
1515.00,0.0397
1514.00,0.0385
1513.00,0.0373
1512.00,0.0359
1511.00,0.0346
1510.00,0.0333
1509.00,0.0321
1508.00,0.0310
1507.00,0.0296
1506.00,0.0281
1505.00,0.0269
1504.00,0.0259
1503.00,0.0250
1502.00,0.0240
1501.00,0.0231
1500.00,0.0221
1499.00,0.0212
1498.00,0.0204
1497.00,0.0196
1496.00,0.0189
1495.00,0.0182
1494.00,0.0176
1493.00,0.0172
1492.00,0.0169
1491.00,0.0165
1490.00,0.0161
1489.00,0.0157
1488.00,0.0153
1487.00,0.0149
1486.00,0.0146
1485.00,0.0144
1484.00,0.0142
1483.00,0.0142
1482.00,0.0143
1481.00,0.0144
1480.00,0.0146
1479.00,0.0149
1478.00,0.0152
1477.00,0.0156
1476.00,0.0160
1475.00,0.0166
1474.00,0.0174
1473.00,0.0183
1472.00,0.0192
1471.00,0.0198
1470.00,0.0202
1469.00,0.0205
1468.00,0.0208
1467.00,0.0210
1466.00,0.0213
1465.00,0.0218
1464.00,0.0223
1463.00,0.0228
1462.00,0.0232
1461.00,0.0235
1460.00,0.0238
1459.00,0.0240
1458.00,0.0246
1457.00,0.0254
1456.00,0.0262
1455.00,0.0266
1454.00,0.0266
1453.00,0.0266
1452.00,0.0264
1451.00,0.0263
1450.00,0.0262
1449.00,0.0262
1448.00,0.0261
1447.00,0.0261
1446.00,0.0260
1445.00,0.0260
1444.00,0.0259
1443.00,0.0258
1442.00,0.0258
1441.00,0.0257
1440.00,0.0257
1439.00,0.0256
1438.00,0.0255
1437.00,0.0257
1436.00,0.0260
1435.00,0.0263
1434.00,0.0265
1433.00,0.0266
1432.00,0.0268
1431.00,0.0269
1430.00,0.0272
1429.00,0.0275
1428.00,0.0278
1427.00,0.0281
1426.00,0.0284
1425.00,0.0287
1424.00,0.0291
1423.00,0.0293
1422.00,0.0294
1421.00,0.0295
1420.00,0.0297
1419.00,0.0301
1418.00,0.0305
1417.00,0.0308
1416.00,0.0310
1415.00,0.0309
1414.00,0.0308
1413.00,0.0306
1412.00,0.0305
1411.00,0.0304
1410.00,0.0302
1409.00,0.0300
1408.00,0.0297
1407.00,0.0294
1406.00,0.0291
1405.00,0.0288
1404.00,0.0285
1403.00,0.0282
1402.00,0.0278
1401.00,0.0273
1400.00,0.0269
1399.00,0.0264
1398.00,0.0260
1397.00,0.0256
1396.00,0.0252
1395.00,0.0247
1394.00,0.0243
1393.00,0.0240
1392.00,0.0237
1391.00,0.0234
1390.00,0.0232
1389.00,0.0230
1388.00,0.0229
1387.00,0.0229
1386.00,0.0230
1385.00,0.0232
1384.00,0.0233
1383.00,0.0234
1382.00,0.0236
1381.00,0.0238
1380.00,0.0239
1379.00,0.0240
1378.00,0.0240
1377.00,0.0241
1376.00,0.0240
1375.00,0.0240
1374.00,0.0238
1373.00,0.0235
1372.00,0.0233
1371.00,0.0230
1370.00,0.0227
1369.00,0.0224
1368.00,0.0220
1367.00,0.0215
1366.00,0.0210
1365.00,0.0205
1364.00,0.0199
1363.00,0.0195
1362.00,0.0191
1361.00,0.0187
1360.00,0.0183
1359.00,0.0180
1358.00,0.0177
1357.00,0.0173
1356.00,0.0170
1355.00,0.0167
1354.00,0.0165
1353.00,0.0161
1352.00,0.0158
1351.00,0.0153
1350.00,0.0149
1349.00,0.0145
1348.00,0.0140
1347.00,0.0136
1346.00,0.0132
1345.00,0.0128
1344.00,0.0123
1343.00,0.0119
1342.00,0.0115
1341.00,0.0112
1340.00,0.0108
1339.00,0.0105
1338.00,0.0101
1337.00,0.0098
1336.00,0.0095
1335.00,0.0091
1334.00,0.0088
1333.00,0.0085
1332.00,0.0083
1331.00,0.0080
1330.00,0.0079
1329.00,0.0078
1328.00,0.0078
1327.00,0.0078
1326.00,0.0078
1325.00,0.0079
1324.00,0.0079
1323.00,0.0080
1322.00,0.0082
1321.00,0.0083
1320.00,0.0085
1319.00,0.0086
1318.00,0.0087
1317.00,0.0088
1316.00,0.0089
1315.00,0.0089
1314.00,0.0090
1313.00,0.0090
1312.00,0.0091
1311.00,0.0091
1310.00,0.0092
1309.00,0.0092
1308.00,0.0093
1307.00,0.0094
1306.00,0.0096
1305.00,0.0099
1304.00,0.0103
1303.00,0.0106
1302.00,0.0111
1301.00,0.0116
1300.00,0.0121
1299.00,0.0128
1298.00,0.0135
1297.00,0.0143
1296.00,0.0152
1295.00,0.0162
1294.00,0.0172
1293.00,0.0184
1292.00,0.0197
1291.00,0.0210
1290.00,0.0225
1289.00,0.0241
1288.00,0.0258
1287.00,0.0276
1286.00,0.0295
1285.00,0.0315
1284.00,0.0336
1283.00,0.0358
1282.00,0.0380
1281.00,0.0403
1280.00,0.0426
1279.00,0.0450
1278.00,0.0474
1277.00,0.0499
1276.00,0.0524
1275.00,0.0549
1274.00,0.0574
1273.00,0.0599
1272.00,0.0624
1271.00,0.0650
1270.00,0.0674
1269.00,0.0698
1268.00,0.0721
1267.00,0.0744
1266.00,0.0765
1265.00,0.0786
1264.00,0.0806
1263.00,0.0826
1262.00,0.0845
1261.00,0.0863
1260.00,0.0881
1259.00,0.0897
1258.00,0.0912
1257.00,0.0926
1256.00,0.0940
1255.00,0.0953
1254.00,0.0965
1253.00,0.0976
1252.00,0.0987
1251.00,0.0997
1250.00,0.1006
1249.00,0.1014
1248.00,0.1023
1247.00,0.1031
1246.00,0.1039
1245.00,0.1048
1244.00,0.1057
1243.00,0.1065
1242.00,0.1074
1241.00,0.1082
1240.00,0.1092
1239.00,0.1102
1238.00,0.1113
1237.00,0.1123
1236.00,0.1134
1235.00,0.1144
1234.00,0.1155
1233.00,0.1166
1232.00,0.1176
1231.00,0.1187
1230.00,0.1196
1229.00,0.1206
1228.00,0.1215
1227.00,0.1224
1226.00,0.1233
1225.00,0.1241
1224.00,0.1249
1223.00,0.1255
1222.00,0.1260
1221.00,0.1264
1220.00,0.1265
1219.00,0.1265
1218.00,0.1264
1217.00,0.1260
1216.00,0.1255
1215.00,0.1247
1214.00,0.1236
1213.00,0.1222
1212.00,0.1206
1211.00,0.1189
1210.00,0.1168
1209.00,0.1147
1208.00,0.1124
1207.00,0.1100
1206.00,0.1074
1205.00,0.1047
1204.00,0.1018
1203.00,0.0989
1202.00,0.0960
1201.00,0.0932
1200.00,0.0904
1199.00,0.0878
1198.00,0.0853
1197.00,0.0831
1196.00,0.0810
1195.00,0.0792
1194.00,0.0775
1193.00,0.0761
1192.00,0.0748
1191.00,0.0735
1190.00,0.0724
1189.00,0.0713
1188.00,0.0703
1187.00,0.0694
1186.00,0.0686
1185.00,0.0678
1184.00,0.0672
1183.00,0.0665
1182.00,0.0660
1181.00,0.0656
1180.00,0.0654
1179.00,0.0655
1178.00,0.0656
1177.00,0.0659
1176.00,0.0664
1175.00,0.0670
1174.00,0.0678
1173.00,0.0688
1172.00,0.0700
1171.00,0.0713
1170.00,0.0729
1169.00,0.0747
1168.00,0.0766
1167.00,0.0786
1166.00,0.0807
1165.00,0.0828
1164.00,0.0849
1163.00,0.0869
1162.00,0.0888
1161.00,0.0906
1160.00,0.0922
1159.00,0.0937
1158.00,0.0949
1157.00,0.0959
1156.00,0.0967
1155.00,0.0972
1154.00,0.0976
1153.00,0.0978
1152.00,0.0978
1151.00,0.0976
1150.00,0.0972
1149.00,0.0967
1148.00,0.0959
1147.00,0.0949
1146.00,0.0937
1145.00,0.0923
1144.00,0.0909
1143.00,0.0895
1142.00,0.0880
1141.00,0.0867
1140.00,0.0854
1139.00,0.0844
1138.00,0.0835
1137.00,0.0829
1136.00,0.0826
1135.00,0.0826
1134.00,0.0829
1133.00,0.0833
1132.00,0.0840
1131.00,0.0846
1130.00,0.0854
1129.00,0.0861
1128.00,0.0867
1127.00,0.0872
1126.00,0.0874
1125.00,0.0874
1124.00,0.0873
1123.00,0.0869
1122.00,0.0864
1121.00,0.0857
1120.00,0.0850
1119.00,0.0842
1118.00,0.0833
1117.00,0.0824
1116.00,0.0815
1115.00,0.0807
1114.00,0.0799
1113.00,0.0791
1112.00,0.0785
1111.00,0.0780
1110.00,0.0777
1109.00,0.0775
1108.00,0.0776
1107.00,0.0779
1106.00,0.0784
1105.00,0.0791
1104.00,0.0800
1103.00,0.0811
1102.00,0.0823
1101.00,0.0837
1100.00,0.0853
1099.00,0.0869
1098.00,0.0887
1097.00,0.0904
1096.00,0.0923
1095.00,0.0941
1094.00,0.0961
1093.00,0.0982
1092.00,0.1004
1091.00,0.1028
1090.00,0.1052
1089.00,0.1078
1088.00,0.1105
1087.00,0.1133
1086.00,0.1162
1085.00,0.1193
1084.00,0.1226
1083.00,0.1259
1082.00,0.1293
1081.00,0.1327
1080.00,0.1363
1079.00,0.1397
1078.00,0.1431
1077.00,0.1464
1076.00,0.1495
1075.00,0.1522
1074.00,0.1545
1073.00,0.1565
1072.00,0.1580
1071.00,0.1592
1070.00,0.1599
1069.00,0.1603
1068.00,0.1603
1067.00,0.1599
1066.00,0.1592
1065.00,0.1584
1064.00,0.1575
1063.00,0.1566
1062.00,0.1557
1061.00,0.1550
1060.00,0.1544
1059.00,0.1540
1058.00,0.1537
1057.00,0.1538
1056.00,0.1541
1055.00,0.1546
1054.00,0.1554
1053.00,0.1564
1052.00,0.1576
1051.00,0.1590
1050.00,0.1607
1049.00,0.1626
1048.00,0.1649
1047.00,0.1672
1046.00,0.1695
1045.00,0.1718
1044.00,0.1740
1043.00,0.1759
1042.00,0.1777
1041.00,0.1792
1040.00,0.1805
1039.00,0.1816
1038.00,0.1825
1037.00,0.1834
1036.00,0.1843
1035.00,0.1853
1034.00,0.1864
1033.00,0.1878
1032.00,0.1893
1031.00,0.1908
1030.00,0.1922
1029.00,0.1935
1028.00,0.1947
1027.00,0.1956
1026.00,0.1960
1025.00,0.1960
1024.00,0.1957
1023.00,0.1949
1022.00,0.1937
1021.00,0.1922
1020.00,0.1905
1019.00,0.1886
1018.00,0.1864
1017.00,0.1841
1016.00,0.1816
1015.00,0.1788
1014.00,0.1759
1013.00,0.1729
1012.00,0.1701
1011.00,0.1674
1010.00,0.1648
1009.00,0.1623
1008.00,0.1599
1007.00,0.1576
1006.00,0.1553
1005.00,0.1528
1004.00,0.1503
1003.00,0.1475
1002.00,0.1445
1001.00,0.1412
1000.00,0.1377
999.00,0.1339
998.00,0.1300
997.00,0.1259
996.00,0.1219
995.00,0.1179
994.00,0.1140
993.00,0.1103
992.00,0.1066
991.00,0.1029
990.00,0.0993
989.00,0.0957
988.00,0.0923
987.00,0.0889
986.00,0.0856
985.00,0.0824
984.00,0.0794
983.00,0.0766
982.00,0.0741
981.00,0.0719
980.00,0.0698
979.00,0.0680
978.00,0.0662
977.00,0.0647
976.00,0.0632
975.00,0.0617
974.00,0.0603
973.00,0.0587
972.00,0.0571
971.00,0.0554
970.00,0.0535
969.00,0.0514
968.00,0.0490
967.00,0.0464
966.00,0.0435
965.00,0.0405
964.00,0.0376
963.00,0.0346
962.00,0.0317
961.00,0.0290
960.00,0.0265
959.00,0.0243
958.00,0.0223
957.00,0.0205
956.00,0.0190
955.00,0.0178
954.00,0.0167
953.00,0.0159
952.00,0.0152
951.00,0.0148
950.00,0.0144
949.00,0.0143
948.00,0.0144
947.00,0.0146
946.00,0.0150
945.00,0.0157
944.00,0.0167
943.00,0.0179
942.00,0.0195
941.00,0.0214
940.00,0.0235
939.00,0.0258
938.00,0.0282
937.00,0.0306
936.00,0.0329
935.00,0.0349
934.00,0.0366
933.00,0.0378
932.00,0.0385
931.00,0.0387
930.00,0.0385
929.00,0.0379
928.00,0.0370
927.00,0.0358
926.00,0.0345
925.00,0.0332
924.00,0.0318
923.00,0.0304
922.00,0.0291
921.00,0.0278
920.00,0.0266
919.00,0.0255
918.00,0.0245
917.00,0.0235
916.00,0.0227
915.00,0.0219
914.00,0.0211
913.00,0.0205
912.00,0.0200
911.00,0.0196
910.00,0.0192
909.00,0.0189
908.00,0.0187
907.00,0.0185
906.00,0.0182
905.00,0.0180
904.00,0.0178
903.00,0.0174
902.00,0.0171
901.00,0.0167
900.00,0.0164
899.00,0.0160
898.00,0.0157
897.00,0.0155
896.00,0.0154
895.00,0.0154
894.00,0.0155
893.00,0.0155
892.00,0.0155
891.00,0.0156
890.00,0.0156
889.00,0.0157
888.00,0.0156
887.00,0.0154
886.00,0.0149
885.00,0.0141
884.00,0.0132
883.00,0.0121
882.00,0.0109
881.00,0.0099
880.00,0.0090
879.00,0.0082
878.00,0.0077
877.00,0.0075
876.00,0.0076
875.00,0.0079
874.00,0.0082
873.00,0.0085
872.00,0.0086
871.00,0.0086
870.00,0.0084
869.00,0.0082
868.00,0.0080
867.00,0.0079
866.00,0.0078
865.00,0.0078
864.00,0.0080
863.00,0.0083
862.00,0.0088
861.00,0.0094
860.00,0.0103
859.00,0.0113
858.00,0.0125
857.00,0.0139
856.00,0.0154
855.00,0.0170
854.00,0.0187
853.00,0.0204
852.00,0.0221
851.00,0.0238
850.00,0.0254
849.00,0.0269
848.00,0.0282
847.00,0.0292
846.00,0.0299
845.00,0.0304
844.00,0.0307
843.00,0.0307
842.00,0.0305
841.00,0.0304
840.00,0.0303
839.00,0.0302
838.00,0.0302
837.00,0.0302
836.00,0.0302
835.00,0.0301
834.00,0.0299
833.00,0.0296
832.00,0.0291
831.00,0.0284
830.00,0.0275
829.00,0.0266
828.00,0.0256
827.00,0.0245
826.00,0.0235
825.00,0.0226
824.00,0.0217
823.00,0.0209
822.00,0.0200
821.00,0.0193
820.00,0.0187
819.00,0.0182
818.00,0.0177
817.00,0.0173
816.00,0.0169
815.00,0.0166
814.00,0.0164
813.00,0.0163
812.00,0.0163
811.00,0.0163
810.00,0.0163
809.00,0.0162
808.00,0.0160
807.00,0.0158
806.00,0.0155
805.00,0.0151
804.00,0.0145
803.00,0.0139
802.00,0.0133
801.00,0.0127
800.00,0.0121
799.00,0.0116
798.00,0.0110
797.00,0.0105
796.00,0.0100
795.00,0.0095
794.00,0.0089
793.00,0.0086
792.00,0.0084
791.00,0.0083
790.00,0.0083
789.00,0.0082
788.00,0.0082
787.00,0.0083
786.00,0.0084
785.00,0.0086
784.00,0.0089
783.00,0.0093
782.00,0.0097
781.00,0.0102
780.00,0.0108
779.00,0.0113
778.00,0.0118
777.00,0.0123
776.00,0.0127
775.00,0.0130
774.00,0.0132
773.00,0.0133
772.00,0.0134
771.00,0.0133
770.00,0.0131
769.00,0.0126
768.00,0.0121
767.00,0.0115
766.00,0.0109
765.00,0.0102
764.00,0.0096
763.00,0.0091
762.00,0.0088
761.00,0.0086
760.00,0.0084
759.00,0.0082
758.00,0.0080
757.00,0.0079
756.00,0.0080
755.00,0.0082
754.00,0.0085
753.00,0.0090
752.00,0.0095
751.00,0.0102
750.00,0.0109
749.00,0.0117
748.00,0.0126
747.00,0.0135
746.00,0.0144
745.00,0.0152
744.00,0.0159
743.00,0.0164
742.00,0.0169
741.00,0.0175
740.00,0.0180
739.00,0.0186
738.00,0.0190
737.00,0.0194
736.00,0.0198
735.00,0.0202
734.00,0.0205
733.00,0.0208
732.00,0.0212
731.00,0.0216
730.00,0.0222
729.00,0.0228
728.00,0.0234
727.00,0.0239
726.00,0.0243
725.00,0.0245
724.00,0.0246
723.00,0.0244
722.00,0.0242
721.00,0.0238
720.00,0.0234
719.00,0.0230
718.00,0.0226
717.00,0.0221
716.00,0.0218
715.00,0.0215
714.00,0.0213
713.00,0.0212
712.00,0.0211
711.00,0.0212
710.00,0.0214
709.00,0.0217
708.00,0.0221
707.00,0.0226
706.00,0.0232
705.00,0.0237
704.00,0.0241
703.00,0.0244
702.00,0.0246
701.00,0.0247
700.00,0.0248
699.00,0.0247
698.00,0.0245
697.00,0.0240
696.00,0.0234
695.00,0.0228
694.00,0.0220
693.00,0.0212
692.00,0.0203
691.00,0.0194
690.00,0.0185
689.00,0.0178
688.00,0.0174
687.00,0.0170
686.00,0.0166
685.00,0.0161
684.00,0.0156
683.00,0.0151
682.00,0.0146
681.00,0.0142
680.00,0.0141
679.00,0.0140
678.00,0.0141
677.00,0.0143
676.00,0.0147
675.00,0.0153
674.00,0.0160
673.00,0.0167
672.00,0.0170
671.00,0.0167
670.00,0.0159
669.00,0.0151
668.00,0.0153
667.00,0.0162
666.00,0.0168
665.00,0.0168
664.00,0.0163
663.00,0.0158
662.00,0.0153
661.00,0.0148
660.00,0.0144
659.00,0.0139
658.00,0.0133
657.00,0.0129
656.00,0.0124
655.00,0.0119
654.00,0.0114
653.00,0.0110
652.00,0.0108
651.00,0.0107
650.00,0.0105
649.00,0.0101
648.00,0.0097
647.00,0.0093
646.00,0.0090
645.00,0.0088
644.00,0.0087
643.00,0.0087
642.00,0.0085
641.00,0.0084
640.00,0.0082
639.00,0.0081
638.00,0.0082
637.00,0.0085
636.00,0.0090
635.00,0.0098
634.00,0.0108
633.00,0.0119
632.00,0.0131
631.00,0.0144
630.00,0.0159
629.00,0.0175
628.00,0.0193
627.00,0.0211
626.00,0.0229
625.00,0.0247
624.00,0.0266
623.00,0.0284
622.00,0.0302
621.00,0.0319
620.00,0.0334
619.00,0.0347
618.00,0.0356
617.00,0.0364
616.00,0.0373
615.00,0.0382
614.00,0.0389
613.00,0.0394
612.00,0.0397
611.00,0.0397
610.00,0.0397
609.00,0.0398
608.00,0.0401
607.00,0.0404
606.00,0.0407
605.00,0.0408
604.00,0.0408
603.00,0.0406
602.00,0.0405
601.00,0.0407
600.00,0.0411
599.00,0.0416
598.00,0.0418
597.00,0.0417
596.00,0.0414
595.00,0.0411
594.00,0.0409
593.00,0.0410
592.00,0.0416
591.00,0.0424
590.00,0.0434
589.00,0.0447
588.00,0.0462
587.00,0.0478
586.00,0.0492
585.00,0.0505
584.00,0.0517
583.00,0.0528
582.00,0.0537
581.00,0.0544
580.00,0.0551
579.00,0.0556
578.00,0.0557
577.00,0.0556
576.00,0.0554
575.00,0.0547
574.00,0.0536
573.00,0.0526
572.00,0.0519
571.00,0.0514
570.00,0.0505
569.00,0.0494
568.00,0.0481
567.00,0.0467
566.00,0.0454
565.00,0.0443
564.00,0.0435
563.00,0.0426
562.00,0.0415
561.00,0.0403
560.00,0.0392
559.00,0.0385
558.00,0.0380
557.00,0.0376
556.00,0.0372
555.00,0.0366
554.00,0.0355
553.00,0.0345
552.00,0.0337
551.00,0.0329
550.00,0.0322
549.00,0.0316
548.00,0.0314
547.00,0.0314
546.00,0.0313
545.00,0.0311
544.00,0.0311
543.00,0.0312
542.00,0.0313
541.00,0.0315
540.00,0.0317
539.00,0.0316
538.00,0.0310
537.00,0.0301
536.00,0.0296
535.00,0.0292
534.00,0.0288
533.00,0.0281
532.00,0.0275
531.00,0.0268
530.00,0.0261
529.00,0.0253
528.00,0.0249
527.00,0.0250
526.00,0.0254
525.00,0.0260
524.00,0.0265
523.00,0.0264
522.00,0.0257
521.00,0.0248
520.00,0.0244
519.00,0.0241
518.00,0.0239
517.00,0.0237
516.00,0.0235
515.00,0.0231
514.00,0.0222
513.00,0.0212
512.00,0.0203
511.00,0.0194
510.00,0.0184
509.00,0.0177
508.00,0.0174
507.00,0.0172
506.00,0.0166
505.00,0.0159
504.00,0.0154
503.00,0.0151
502.00,0.0146
501.00,0.0137
500.00,0.0129
499.00,0.0123
498.00,0.0119
497.00,0.0118
496.00,0.0118
495.00,0.0115
494.00,0.0109
493.00,0.0104
492.00,0.0104
491.00,0.0104
490.00,0.0099
489.00,0.0092
488.00,0.0089
487.00,0.0093
486.00,0.0103
485.00,0.0114
484.00,0.0124
483.00,0.0129
482.00,0.0127
481.00,0.0123
480.00,0.0121
479.00,0.0117
478.00,0.0107
477.00,0.0095
476.00,0.0091
475.00,0.0097
474.00,0.0107
473.00,0.0118
472.00,0.0127
471.00,0.0130
470.00,0.0127
469.00,0.0121
468.00,0.0117
467.00,0.0112
466.00,0.0104
465.00,0.0099
464.00,0.0101
463.00,0.0107
462.00,0.0109
461.00,0.0102
460.00,0.0094
459.00,0.0091
458.00,0.0093
457.00,0.0096
456.00,0.0094
455.00,0.0083
454.00,0.0069
453.00,0.0062
452.00,0.0061
451.00,0.0056
450.00,0.0045
