Created as New Dataset,Sample 003 By Administrator Date Monday, June 09 2025
cm-1,A
4000.00,0.0093
3999.00,0.0093
3998.00,0.0093
3997.00,0.0093
3996.00,0.0093
3995.00,0.0093
3994.00,0.0093
3993.00,0.0093
3992.00,0.0093
3991.00,0.0093
3990.00,0.0094
3989.00,0.0094
3988.00,0.0094
3987.00,0.0095
3986.00,0.0095
3985.00,0.0095
3984.00,0.0094
3983.00,0.0094
3982.00,0.0093
3981.00,0.0093
3980.00,0.0093
3979.00,0.0094
3978.00,0.0094
3977.00,0.0095
3976.00,0.0095
3975.00,0.0095
3974.00,0.0095
3973.00,0.0095
3972.00,0.0095
3971.00,0.0094
3970.00,0.0094
3969.00,0.0094
3968.00,0.0095
3967.00,0.0095
3966.00,0.0095
3965.00,0.0095
3964.00,0.0095
3963.00,0.0095
3962.00,0.0096
3961.00,0.0096
3960.00,0.0096
3959.00,0.0096
3958.00,0.0096
3957.00,0.0096
3956.00,0.0096
3955.00,0.0096
3954.00,0.0096
3953.00,0.0096
3952.00,0.0096
3951.00,0.0096
3950.00,0.0097
3949.00,0.0097
3948.00,0.0097
3947.00,0.0097
3946.00,0.0097
3945.00,0.0098
3944.00,0.0097
3943.00,0.0097
3942.00,0.0096
3941.00,0.0095
3940.00,0.0095
3939.00,0.0096
3938.00,0.0096
3937.00,0.0096
3936.00,0.0096
3935.00,0.0097
3934.00,0.0097
3933.00,0.0097
3932.00,0.0097
3931.00,0.0097
3930.00,0.0096
3929.00,0.0096
3928.00,0.0096
3927.00,0.0097
3926.00,0.0097
3925.00,0.0097
3924.00,0.0096
3923.00,0.0096
3922.00,0.0097
3921.00,0.0097
3920.00,0.0098
3919.00,0.0098
3918.00,0.0098
3917.00,0.0097
3916.00,0.0097
3915.00,0.0096
3914.00,0.0096
3913.00,0.0095
3912.00,0.0095
3911.00,0.0094
3910.00,0.0094
3909.00,0.0093
3908.00,0.0094
3907.00,0.0094
3906.00,0.0095
3905.00,0.0097
3904.00,0.0098
3903.00,0.0100
3902.00,0.0101
3901.00,0.0102
3900.00,0.0102
3899.00,0.0101
3898.00,0.0099
3897.00,0.0098
3896.00,0.0097
3895.00,0.0097
3894.00,0.0097
3893.00,0.0097
3892.00,0.0096
3891.00,0.0095
3890.00,0.0095
3889.00,0.0096
3888.00,0.0097
3887.00,0.0098
3886.00,0.0099
3885.00,0.0099
3884.00,0.0099
3883.00,0.0100
3882.00,0.0101
3881.00,0.0100
3880.00,0.0099
3879.00,0.0097
3878.00,0.0097
3877.00,0.0098
3876.00,0.0099
3875.00,0.0099
3874.00,0.0098
3873.00,0.0098
3872.00,0.0099
3871.00,0.0100
3870.00,0.0100
3869.00,0.0100
3868.00,0.0099
3867.00,0.0100
3866.00,0.0101
3865.00,0.0102
3864.00,0.0101
3863.00,0.0100
3862.00,0.0099
3861.00,0.0099
3860.00,0.0098
3859.00,0.0097
3858.00,0.0095
3857.00,0.0093
3856.00,0.0092
3855.00,0.0093
3854.00,0.0095
3853.00,0.0097
3852.00,0.0098
3851.00,0.0100
3850.00,0.0102
3849.00,0.0102
3848.00,0.0101
3847.00,0.0100
3846.00,0.0099
3845.00,0.0099
3844.00,0.0099
3843.00,0.0099
3842.00,0.0099
3841.00,0.0100
3840.00,0.0100
3839.00,0.0101
3838.00,0.0101
3837.00,0.0102
3836.00,0.0102
3835.00,0.0102
3834.00,0.0102
3833.00,0.0101
3832.00,0.0100
3831.00,0.0100
3830.00,0.0099
3829.00,0.0099
3828.00,0.0098
3827.00,0.0098
3826.00,0.0097
3825.00,0.0096
3824.00,0.0097
3823.00,0.0099
3822.00,0.0101
3821.00,0.0101
3820.00,0.0100
3819.00,0.0100
3818.00,0.0100
3817.00,0.0101
3816.00,0.0101
3815.00,0.0100
3814.00,0.0098
3813.00,0.0097
3812.00,0.0096
3811.00,0.0095
3810.00,0.0093
3809.00,0.0093
3808.00,0.0093
3807.00,0.0094
3806.00,0.0095
3805.00,0.0096
3804.00,0.0098
3803.00,0.0100
3802.00,0.0101
3801.00,0.0101
3800.00,0.0101
3799.00,0.0101
3798.00,0.0101
3797.00,0.0101
3796.00,0.0099
3795.00,0.0098
3794.00,0.0096
3793.00,0.0095
3792.00,0.0095
3791.00,0.0094
3790.00,0.0093
3789.00,0.0093
3788.00,0.0093
3787.00,0.0093
3786.00,0.0094
3785.00,0.0093
3784.00,0.0094
3783.00,0.0094
3782.00,0.0095
3781.00,0.0096
3780.00,0.0096
3779.00,0.0096
3778.00,0.0095
3777.00,0.0094
3776.00,0.0094
3775.00,0.0095
3774.00,0.0095
3773.00,0.0095
3772.00,0.0095
3771.00,0.0095
3770.00,0.0096
3769.00,0.0097
3768.00,0.0098
3767.00,0.0099
3766.00,0.0099
3765.00,0.0099
3764.00,0.0099
3763.00,0.0098
3762.00,0.0099
3761.00,0.0100
3760.00,0.0100
3759.00,0.0100
3758.00,0.0099
3757.00,0.0100
3756.00,0.0100
3755.00,0.0101
3754.00,0.0102
3753.00,0.0104
3752.00,0.0105
3751.00,0.0106
3750.00,0.0108
3749.00,0.0109
3748.00,0.0109
3747.00,0.0109
3746.00,0.0110
3745.00,0.0110
3744.00,0.0109
3743.00,0.0108
3742.00,0.0108
3741.00,0.0109
3740.00,0.0109
3739.00,0.0110
3738.00,0.0111
3737.00,0.0112
3736.00,0.0112
3735.00,0.0111
3734.00,0.0110
3733.00,0.0109
3732.00,0.0108
3731.00,0.0107
3730.00,0.0106
3729.00,0.0106
3728.00,0.0107
3727.00,0.0107
3726.00,0.0107
3725.00,0.0106
3724.00,0.0105
3723.00,0.0105
3722.00,0.0105
3721.00,0.0105
3720.00,0.0104
3719.00,0.0103
3718.00,0.0103
3717.00,0.0102
3716.00,0.0102
3715.00,0.0103
3714.00,0.0105
3713.00,0.0107
3712.00,0.0109
3711.00,0.0110
3710.00,0.0111
3709.00,0.0112
3708.00,0.0112
3707.00,0.0112
3706.00,0.0112
3705.00,0.0111
3704.00,0.0111
3703.00,0.0111
3702.00,0.0111
3701.00,0.0111
3700.00,0.0111
3699.00,0.0112
3698.00,0.0112
3697.00,0.0113
3696.00,0.0114
3695.00,0.0115
3694.00,0.0116
3693.00,0.0118
3692.00,0.0119
3691.00,0.0121
3690.00,0.0122
3689.00,0.0124
3688.00,0.0126
3687.00,0.0128
3686.00,0.0130
3685.00,0.0131
3684.00,0.0131
3683.00,0.0132
3682.00,0.0133
3681.00,0.0134
3680.00,0.0135
3679.00,0.0136
3678.00,0.0139
3677.00,0.0143
3676.00,0.0147
3675.00,0.0149
3674.00,0.0152
3673.00,0.0156
3672.00,0.0160
3671.00,0.0164
3670.00,0.0165
3669.00,0.0165
3668.00,0.0166
3667.00,0.0168
3666.00,0.0170
3665.00,0.0172
3664.00,0.0173
3663.00,0.0175
3662.00,0.0177
3661.00,0.0179
3660.00,0.0182
3659.00,0.0185
3658.00,0.0189
3657.00,0.0194
3656.00,0.0198
3655.00,0.0203
3654.00,0.0208
3653.00,0.0213
3652.00,0.0219
3651.00,0.0225
3650.00,0.0231
3649.00,0.0236
3648.00,0.0241
3647.00,0.0245
3646.00,0.0249
3645.00,0.0253
3644.00,0.0256
3643.00,0.0259
3642.00,0.0262
3641.00,0.0265
3640.00,0.0268
3639.00,0.0272
3638.00,0.0277
3637.00,0.0282
3636.00,0.0287
3635.00,0.0292
3634.00,0.0297
3633.00,0.0302
3632.00,0.0307
3631.00,0.0313
3630.00,0.0320
3629.00,0.0327
3628.00,0.0333
3627.00,0.0340
3626.00,0.0347
3625.00,0.0353
3624.00,0.0359
3623.00,0.0364
3622.00,0.0368
3621.00,0.0374
3620.00,0.0379
3619.00,0.0385
3618.00,0.0391
3617.00,0.0398
3616.00,0.0405
3615.00,0.0411
3614.00,0.0417
3613.00,0.0422
3612.00,0.0427
3611.00,0.0433
3610.00,0.0439
3609.00,0.0445
3608.00,0.0450
3607.00,0.0455
3606.00,0.0460
3605.00,0.0465
3604.00,0.0471
3603.00,0.0476
3602.00,0.0482
3601.00,0.0487
3600.00,0.0492
3599.00,0.0498
3598.00,0.0504
3597.00,0.0511
3596.00,0.0517
3595.00,0.0523
3594.00,0.0528
3593.00,0.0533
3592.00,0.0539
3591.00,0.0545
3590.00,0.0552
3589.00,0.0558
3588.00,0.0564
3587.00,0.0570
3586.00,0.0577
3585.00,0.0583
3584.00,0.0590
3583.00,0.0596
3582.00,0.0601
3581.00,0.0605
3580.00,0.0609
3579.00,0.0614
3578.00,0.0619
3577.00,0.0624
3576.00,0.0630
3575.00,0.0636
3574.00,0.0642
3573.00,0.0648
3572.00,0.0654
3571.00,0.0661
3570.00,0.0668
3569.00,0.0675
3568.00,0.0682
3567.00,0.0688
3566.00,0.0694
3565.00,0.0700
3564.00,0.0707
3563.00,0.0714
3562.00,0.0719
3561.00,0.0723
3560.00,0.0728
3559.00,0.0732
3558.00,0.0737
3557.00,0.0742
3556.00,0.0748
3555.00,0.0754
3554.00,0.0760
3553.00,0.0765
3552.00,0.0771
3551.00,0.0778
3550.00,0.0784
3549.00,0.0791
3548.00,0.0798
3547.00,0.0804
3546.00,0.0809
3545.00,0.0815
3544.00,0.0820
3543.00,0.0826
3542.00,0.0832
3541.00,0.0837
3540.00,0.0842
3539.00,0.0847
3538.00,0.0853
3537.00,0.0858
3536.00,0.0864
3535.00,0.0869
3534.00,0.0875
3533.00,0.0881
3532.00,0.0886
3531.00,0.0892
3530.00,0.0897
3529.00,0.0902
3528.00,0.0909
3527.00,0.0915
3526.00,0.0922
3525.00,0.0929
3524.00,0.0934
3523.00,0.0939
3522.00,0.0944
3521.00,0.0948
3520.00,0.0953
3519.00,0.0958
3518.00,0.0962
3517.00,0.0968
3516.00,0.0973
3515.00,0.0979
3514.00,0.0985
3513.00,0.0991
3512.00,0.0996
3511.00,0.1002
3510.00,0.1007
3509.00,0.1013
3508.00,0.1019
3507.00,0.1025
3506.00,0.1032
3505.00,0.1038
3504.00,0.1043
3503.00,0.1048
3502.00,0.1053
3501.00,0.1058
3500.00,0.1064
3499.00,0.1069
3498.00,0.1074
3497.00,0.1079
3496.00,0.1084
3495.00,0.1090
3494.00,0.1095
3493.00,0.1100
3492.00,0.1106
3491.00,0.1111
3490.00,0.1117
3489.00,0.1122
3488.00,0.1127
3487.00,0.1132
3486.00,0.1137
3485.00,0.1142
3484.00,0.1148
3483.00,0.1153
3482.00,0.1158
3481.00,0.1163
3480.00,0.1168
3479.00,0.1174
3478.00,0.1179
3477.00,0.1184
3476.00,0.1189
3475.00,0.1194
3474.00,0.1199
3473.00,0.1205
3472.00,0.1211
3471.00,0.1217
3470.00,0.1223
3469.00,0.1229
3468.00,0.1234
3467.00,0.1238
3466.00,0.1243
3465.00,0.1247
3464.00,0.1252
3463.00,0.1257
3462.00,0.1262
3461.00,0.1268
3460.00,0.1273
3459.00,0.1278
3458.00,0.1283
3457.00,0.1287
3456.00,0.1291
3455.00,0.1295
3454.00,0.1299
3453.00,0.1304
3452.00,0.1309
3451.00,0.1314
3450.00,0.1319
3449.00,0.1324
3448.00,0.1330
3447.00,0.1335
3446.00,0.1340
3445.00,0.1345
3444.00,0.1350
3443.00,0.1354
3442.00,0.1358
3441.00,0.1362
3440.00,0.1367
3439.00,0.1372
3438.00,0.1377
3437.00,0.1382
3436.00,0.1387
3435.00,0.1391
3434.00,0.1395
3433.00,0.1399
3432.00,0.1403
3431.00,0.1408
3430.00,0.1413
3429.00,0.1417
3428.00,0.1421
3427.00,0.1424
3426.00,0.1428
3425.00,0.1432
3424.00,0.1436
3423.00,0.1440
3422.00,0.1444
3421.00,0.1448
3420.00,0.1452
3419.00,0.1455
3418.00,0.1459
3417.00,0.1463
3416.00,0.1467
3415.00,0.1471
3414.00,0.1475
3413.00,0.1479
3412.00,0.1482
3411.00,0.1486
3410.00,0.1489
3409.00,0.1492
3408.00,0.1495
3407.00,0.1498
3406.00,0.1501
3405.00,0.1504
3404.00,0.1508
3403.00,0.1512
3402.00,0.1516
3401.00,0.1519
3400.00,0.1522
3399.00,0.1524
3398.00,0.1527
3397.00,0.1529
3396.00,0.1531
3395.00,0.1534
3394.00,0.1537
3393.00,0.1540
3392.00,0.1542
3391.00,0.1544
3390.00,0.1546
3389.00,0.1548
3388.00,0.1549
3387.00,0.1551
3386.00,0.1553
3385.00,0.1555
3384.00,0.1558
3383.00,0.1560
3382.00,0.1562
3381.00,0.1564
3380.00,0.1566
3379.00,0.1567
3378.00,0.1569
3377.00,0.1570
3376.00,0.1571
3375.00,0.1572
3374.00,0.1574
3373.00,0.1575
3372.00,0.1577
3371.00,0.1580
3370.00,0.1582
3369.00,0.1584
3368.00,0.1585
3367.00,0.1585
3366.00,0.1585
3365.00,0.1585
3364.00,0.1586
3363.00,0.1586
3362.00,0.1587
3361.00,0.1588
3360.00,0.1589
3359.00,0.1589
3358.00,0.1589
3357.00,0.1590
3356.00,0.1590
3355.00,0.1590
3354.00,0.1591
3353.00,0.1592
3352.00,0.1593
3351.00,0.1593
3350.00,0.1593
3349.00,0.1593
3348.00,0.1593
3347.00,0.1592
3346.00,0.1593
3345.00,0.1593
3344.00,0.1593
3343.00,0.1593
3342.00,0.1593
3341.00,0.1593
3340.00,0.1593
3339.00,0.1592
3338.00,0.1592
3337.00,0.1591
3336.00,0.1589
3335.00,0.1589
3334.00,0.1589
3333.00,0.1589
3332.00,0.1589
3331.00,0.1588
3330.00,0.1588
3329.00,0.1587
3328.00,0.1587
3327.00,0.1587
3326.00,0.1587
3325.00,0.1586
3324.00,0.1586
3323.00,0.1585
3322.00,0.1584
3321.00,0.1583
3320.00,0.1583
3319.00,0.1582
3318.00,0.1582
3317.00,0.1581
3316.00,0.1580
3315.00,0.1580
3314.00,0.1579
3313.00,0.1579
3312.00,0.1578
3311.00,0.1578
3310.00,0.1577
3309.00,0.1577
3308.00,0.1576
3307.00,0.1576
3306.00,0.1575
3305.00,0.1575
3304.00,0.1575
3303.00,0.1574
3302.00,0.1573
3301.00,0.1573
3300.00,0.1572
3299.00,0.1571
3298.00,0.1570
3297.00,0.1570
3296.00,0.1569
3295.00,0.1569
3294.00,0.1568
3293.00,0.1567
3292.00,0.1566
3291.00,0.1565
3290.00,0.1564
3289.00,0.1564
3288.00,0.1562
3287.00,0.1561
3286.00,0.1560
3285.00,0.1558
3284.00,0.1556
3283.00,0.1555
3282.00,0.1553
3281.00,0.1551
3280.00,0.1550
3279.00,0.1548
3278.00,0.1546
3277.00,0.1545
3276.00,0.1543
3275.00,0.1540
3274.00,0.1538
3273.00,0.1535
3272.00,0.1532
3271.00,0.1530
3270.00,0.1527
3269.00,0.1524
3268.00,0.1521
3267.00,0.1518
3266.00,0.1515
3265.00,0.1512
3264.00,0.1509
3263.00,0.1506
3262.00,0.1503
3261.00,0.1500
3260.00,0.1496
3259.00,0.1493
3258.00,0.1489
3257.00,0.1486
3256.00,0.1482
3255.00,0.1478
3254.00,0.1474
3253.00,0.1469
3252.00,0.1466
3251.00,0.1462
3250.00,0.1458
3249.00,0.1455
3248.00,0.1451
3247.00,0.1448
3246.00,0.1444
3245.00,0.1440
3244.00,0.1435
3243.00,0.1431
3242.00,0.1427
3241.00,0.1423
3240.00,0.1420
3239.00,0.1416
3238.00,0.1412
3237.00,0.1408
3236.00,0.1404
3235.00,0.1400
3234.00,0.1396
3233.00,0.1391
3232.00,0.1387
3231.00,0.1383
3230.00,0.1378
3229.00,0.1374
3228.00,0.1370
3227.00,0.1365
3226.00,0.1361
3225.00,0.1357
3224.00,0.1353
3223.00,0.1349
3222.00,0.1344
3221.00,0.1339
3220.00,0.1335
3219.00,0.1330
3218.00,0.1326
3217.00,0.1322
3216.00,0.1317
3215.00,0.1313
3214.00,0.1308
3213.00,0.1303
3212.00,0.1298
3211.00,0.1293
3210.00,0.1289
3209.00,0.1283
3208.00,0.1278
3207.00,0.1274
3206.00,0.1269
3205.00,0.1264
3204.00,0.1259
3203.00,0.1254
3202.00,0.1249
3201.00,0.1244
3200.00,0.1239
3199.00,0.1234
3198.00,0.1228
3197.00,0.1223
3196.00,0.1218
3195.00,0.1212
3194.00,0.1206
3193.00,0.1201
3192.00,0.1195
3191.00,0.1190
3190.00,0.1184
3189.00,0.1179
3188.00,0.1174
3187.00,0.1169
3186.00,0.1163
3185.00,0.1158
3184.00,0.1152
3183.00,0.1147
3182.00,0.1142
3181.00,0.1136
3180.00,0.1130
3179.00,0.1125
3178.00,0.1119
3177.00,0.1113
3176.00,0.1108
3175.00,0.1102
3174.00,0.1095
3173.00,0.1089
3172.00,0.1083
3171.00,0.1077
3170.00,0.1072
3169.00,0.1066
3168.00,0.1061
3167.00,0.1055
3166.00,0.1049
3165.00,0.1043
3164.00,0.1038
3163.00,0.1032
3162.00,0.1027
3161.00,0.1021
3160.00,0.1015
3159.00,0.1009
3158.00,0.1003
3157.00,0.0997
3156.00,0.0992
3155.00,0.0987
3154.00,0.0981
3153.00,0.0976
3152.00,0.0970
3151.00,0.0964
3150.00,0.0958
3149.00,0.0953
3148.00,0.0948
3147.00,0.0942
3146.00,0.0937
3145.00,0.0932
3144.00,0.0926
3143.00,0.0920
3142.00,0.0915
3141.00,0.0909
3140.00,0.0905
3139.00,0.0900
3138.00,0.0895
3137.00,0.0890
3136.00,0.0886
3135.00,0.0881
3134.00,0.0876
3133.00,0.0871
3132.00,0.0866
3131.00,0.0861
3130.00,0.0857
3129.00,0.0852
3128.00,0.0847
3127.00,0.0842
3126.00,0.0838
3125.00,0.0834
3124.00,0.0829
3123.00,0.0825
3122.00,0.0820
3121.00,0.0816
3120.00,0.0812
3119.00,0.0807
3118.00,0.0803
3117.00,0.0799
3116.00,0.0794
3115.00,0.0790
3114.00,0.0786
3113.00,0.0783
3112.00,0.0779
3111.00,0.0775
3110.00,0.0771
3109.00,0.0768
3108.00,0.0764
3107.00,0.0761
3106.00,0.0758
3105.00,0.0754
3104.00,0.0750
3103.00,0.0747
3102.00,0.0743
3101.00,0.0740
3100.00,0.0737
3099.00,0.0734
3098.00,0.0731
3097.00,0.0728
3096.00,0.0724
3095.00,0.0721
3094.00,0.0718
3093.00,0.0714
3092.00,0.0711
3091.00,0.0708
3090.00,0.0706
3089.00,0.0703
3088.00,0.0700
3087.00,0.0696
3086.00,0.0693
3085.00,0.0690
3084.00,0.0688
3083.00,0.0685
3082.00,0.0682
3081.00,0.0680
3080.00,0.0677
3079.00,0.0675
3078.00,0.0672
3077.00,0.0670
3076.00,0.0667
3075.00,0.0664
3074.00,0.0660
3073.00,0.0657
3072.00,0.0654
3071.00,0.0651
3070.00,0.0648
3069.00,0.0645
3068.00,0.0642
3067.00,0.0639
3066.00,0.0636
3065.00,0.0633
3064.00,0.0630
3063.00,0.0627
3062.00,0.0624
3061.00,0.0621
3060.00,0.0618
3059.00,0.0615
3058.00,0.0612
3057.00,0.0609
3056.00,0.0605
3055.00,0.0602
3054.00,0.0599
3053.00,0.0596
3052.00,0.0592
3051.00,0.0589
3050.00,0.0586
3049.00,0.0583
3048.00,0.0579
3047.00,0.0576
3046.00,0.0573
3045.00,0.0570
3044.00,0.0567
3043.00,0.0565
3042.00,0.0561
3041.00,0.0558
3040.00,0.0555
3039.00,0.0552
3038.00,0.0549
3037.00,0.0545
3036.00,0.0542
3035.00,0.0539
3034.00,0.0537
3033.00,0.0534
3032.00,0.0532
3031.00,0.0529
3030.00,0.0527
3029.00,0.0524
3028.00,0.0522
3027.00,0.0519
3026.00,0.0517
3025.00,0.0514
3024.00,0.0512
3023.00,0.0510
3022.00,0.0507
3021.00,0.0505
3020.00,0.0503
3019.00,0.0501
3018.00,0.0499
3017.00,0.0497
3016.00,0.0495
3015.00,0.0493
3014.00,0.0492
3013.00,0.0490
3012.00,0.0488
3011.00,0.0487
3010.00,0.0485
3009.00,0.0483
3008.00,0.0481
3007.00,0.0479
3006.00,0.0478
3005.00,0.0476
3004.00,0.0475
3003.00,0.0473
3002.00,0.0472
3001.00,0.0471
3000.00,0.0469
2999.00,0.0468
2998.00,0.0468
2997.00,0.0467
2996.00,0.0466
2995.00,0.0466
2994.00,0.0466
2993.00,0.0466
2992.00,0.0466
2991.00,0.0467
2990.00,0.0467
2989.00,0.0468
2988.00,0.0470
2987.00,0.0471
2986.00,0.0473
2985.00,0.0474
2984.00,0.0475
2983.00,0.0476
2982.00,0.0477
2981.00,0.0479
2980.00,0.0480
2979.00,0.0482
2978.00,0.0484
2977.00,0.0487
2976.00,0.0489
2975.00,0.0491
2974.00,0.0493
2973.00,0.0495
2972.00,0.0498
2971.00,0.0500
2970.00,0.0502
2969.00,0.0503
2968.00,0.0505
2967.00,0.0507
2966.00,0.0509
2965.00,0.0511
2964.00,0.0513
2963.00,0.0514
2962.00,0.0515
2961.00,0.0516
2960.00,0.0516
2959.00,0.0516
2958.00,0.0516
2957.00,0.0515
2956.00,0.0514
2955.00,0.0513
2954.00,0.0512
2953.00,0.0511
2952.00,0.0511
2951.00,0.0510
2950.00,0.0509
2949.00,0.0509
2948.00,0.0509
2947.00,0.0509
2946.00,0.0509
2945.00,0.0509
2944.00,0.0510
2943.00,0.0511
2942.00,0.0512
2941.00,0.0513
2940.00,0.0515
2939.00,0.0517
2938.00,0.0519
2937.00,0.0521
2936.00,0.0523
2935.00,0.0524
2934.00,0.0525
2933.00,0.0526
2932.00,0.0526
2931.00,0.0527
2930.00,0.0528
2929.00,0.0529
2928.00,0.0529
2927.00,0.0529
2926.00,0.0529
2925.00,0.0529
2924.00,0.0528
2923.00,0.0527
2922.00,0.0526
2921.00,0.0523
2920.00,0.0520
2919.00,0.0517
2918.00,0.0513
2917.00,0.0509
2916.00,0.0504
2915.00,0.0499
2914.00,0.0495
2913.00,0.0490
2912.00,0.0486
2911.00,0.0482
2910.00,0.0478
2909.00,0.0474
2908.00,0.0470
2907.00,0.0467
2906.00,0.0464
2905.00,0.0462
2904.00,0.0459
2903.00,0.0456
2902.00,0.0453
2901.00,0.0451
2900.00,0.0448
2899.00,0.0445
2898.00,0.0443
2897.00,0.0440
2896.00,0.0438
2895.00,0.0435
2894.00,0.0432
2893.00,0.0430
2892.00,0.0428
2891.00,0.0425
2890.00,0.0423
2889.00,0.0421
2888.00,0.0419
2887.00,0.0416
2886.00,0.0414
2885.00,0.0412
2884.00,0.0410
2883.00,0.0409
2882.00,0.0407
2881.00,0.0405
2880.00,0.0404
2879.00,0.0403
2878.00,0.0402
2877.00,0.0401
2876.00,0.0399
2875.00,0.0397
2874.00,0.0395
2873.00,0.0394
2872.00,0.0391
2871.00,0.0389
2870.00,0.0387
2869.00,0.0384
2868.00,0.0380
2867.00,0.0377
2866.00,0.0374
2865.00,0.0372
2864.00,0.0370
2863.00,0.0369
2862.00,0.0368
2861.00,0.0368
2860.00,0.0367
2859.00,0.0367
2858.00,0.0367
2857.00,0.0366
2856.00,0.0366
2855.00,0.0367
2854.00,0.0366
2853.00,0.0366
2852.00,0.0365
2851.00,0.0363
2850.00,0.0360
2849.00,0.0355
2848.00,0.0351
2847.00,0.0345
2846.00,0.0340
2845.00,0.0335
2844.00,0.0330
2843.00,0.0325
2842.00,0.0321
2841.00,0.0318
2840.00,0.0314
2839.00,0.0311
2838.00,0.0309
2837.00,0.0306
2836.00,0.0304
2835.00,0.0302
2834.00,0.0300
2833.00,0.0299
2832.00,0.0297
2831.00,0.0295
2830.00,0.0294
2829.00,0.0292
2828.00,0.0291
2827.00,0.0289
2826.00,0.0288
2825.00,0.0287
2824.00,0.0286
2823.00,0.0285
2822.00,0.0283
2821.00,0.0282
2820.00,0.0281
2819.00,0.0279
2818.00,0.0278
2817.00,0.0277
2816.00,0.0276
2815.00,0.0275
2814.00,0.0274
2813.00,0.0273
2812.00,0.0271
2811.00,0.0269
2810.00,0.0268
2809.00,0.0266
2808.00,0.0265
2807.00,0.0264
2806.00,0.0264
2805.00,0.0263
2804.00,0.0262
2803.00,0.0261
2802.00,0.0260
2801.00,0.0259
2800.00,0.0258
2799.00,0.0256
2798.00,0.0255
2797.00,0.0254
2796.00,0.0253
2795.00,0.0253
2794.00,0.0252
2793.00,0.0251
2792.00,0.0250
2791.00,0.0249
2790.00,0.0248
2789.00,0.0248
2788.00,0.0247
2787.00,0.0246
2786.00,0.0245
2785.00,0.0245
2784.00,0.0244
2783.00,0.0243
2782.00,0.0242
2781.00,0.0242
2780.00,0.0241
2779.00,0.0240
2778.00,0.0239
2777.00,0.0238
2776.00,0.0237
2775.00,0.0237
2774.00,0.0236
2773.00,0.0235
2772.00,0.0235
2771.00,0.0234
2770.00,0.0233
2769.00,0.0232
2768.00,0.0232
2767.00,0.0231
2766.00,0.0231
2765.00,0.0230
2764.00,0.0229
2763.00,0.0229
2762.00,0.0228
2761.00,0.0228
2760.00,0.0227
2759.00,0.0226
2758.00,0.0226
2757.00,0.0225
2756.00,0.0225
2755.00,0.0224
2754.00,0.0224
2753.00,0.0223
2752.00,0.0222
2751.00,0.0222
2750.00,0.0221
2749.00,0.0221
2748.00,0.0221
2747.00,0.0220
2746.00,0.0220
2745.00,0.0219
2744.00,0.0218
2743.00,0.0218
2742.00,0.0217
2741.00,0.0217
2740.00,0.0216
2739.00,0.0215
2738.00,0.0215
2737.00,0.0214
2736.00,0.0214
2735.00,0.0214
2734.00,0.0213
2733.00,0.0213
2732.00,0.0213
2731.00,0.0212
2730.00,0.0212
2729.00,0.0211
2728.00,0.0210
2727.00,0.0210
2726.00,0.0209
2725.00,0.0208
2724.00,0.0208
2723.00,0.0207
2722.00,0.0207
2721.00,0.0206
2720.00,0.0206
2719.00,0.0205
2718.00,0.0204
2717.00,0.0204
2716.00,0.0203
2715.00,0.0203
2714.00,0.0202
2713.00,0.0202
2712.00,0.0201
2711.00,0.0201
2710.00,0.0200
2709.00,0.0200
2708.00,0.0200
2707.00,0.0199
2706.00,0.0199
2705.00,0.0199
2704.00,0.0198
2703.00,0.0198
2702.00,0.0198
2701.00,0.0197
2700.00,0.0196
2699.00,0.0196
2698.00,0.0195
2697.00,0.0195
2696.00,0.0195
2695.00,0.0194
2694.00,0.0194
2693.00,0.0194
2692.00,0.0193
2691.00,0.0193
2690.00,0.0193
2689.00,0.0192
2688.00,0.0192
2687.00,0.0192
2686.00,0.0191
2685.00,0.0191
2684.00,0.0191
2683.00,0.0191
2682.00,0.0191
2681.00,0.0190
2680.00,0.0190
2679.00,0.0189
2678.00,0.0189
2677.00,0.0188
2676.00,0.0188
2675.00,0.0188
2674.00,0.0187
2673.00,0.0186
2672.00,0.0186
2671.00,0.0186
2670.00,0.0186
2669.00,0.0186
2668.00,0.0186
2667.00,0.0186
2666.00,0.0185
2665.00,0.0185
2664.00,0.0185
2663.00,0.0185
2662.00,0.0185
2661.00,0.0185
2660.00,0.0185
2659.00,0.0185
2658.00,0.0184
2657.00,0.0184
2656.00,0.0184
2655.00,0.0183
2654.00,0.0183
2653.00,0.0182
2652.00,0.0182
2651.00,0.0182
2650.00,0.0181
2649.00,0.0181
2648.00,0.0181
2647.00,0.0180
2646.00,0.0180
2645.00,0.0180
2644.00,0.0179
2643.00,0.0179
2642.00,0.0178
2641.00,0.0178
2640.00,0.0177
2639.00,0.0176
2638.00,0.0176
2637.00,0.0175
2636.00,0.0174
2635.00,0.0174
2634.00,0.0174
2633.00,0.0173
2632.00,0.0173
2631.00,0.0173
2630.00,0.0172
2629.00,0.0172
2628.00,0.0172
2627.00,0.0171
2626.00,0.0170
2625.00,0.0170
2624.00,0.0170
2623.00,0.0169
2622.00,0.0169
2621.00,0.0168
2620.00,0.0167
2619.00,0.0166
2618.00,0.0166
2617.00,0.0165
2616.00,0.0165
2615.00,0.0165
2614.00,0.0165
2613.00,0.0165
2612.00,0.0164
2611.00,0.0163
2610.00,0.0162
2609.00,0.0162
2608.00,0.0161
2607.00,0.0161
2606.00,0.0161
2605.00,0.0161
2604.00,0.0160
2603.00,0.0160
2602.00,0.0159
2601.00,0.0159
2600.00,0.0159
2599.00,0.0158
2598.00,0.0158
2597.00,0.0158
2596.00,0.0158
2595.00,0.0157
2594.00,0.0157
2593.00,0.0157
2592.00,0.0156
2591.00,0.0156
2590.00,0.0156
2589.00,0.0155
2588.00,0.0155
2587.00,0.0154
2586.00,0.0154
2585.00,0.0153
2584.00,0.0153
2583.00,0.0153
2582.00,0.0153
2581.00,0.0153
2580.00,0.0153
2579.00,0.0153
2578.00,0.0153
2577.00,0.0153
2576.00,0.0152
2575.00,0.0152
2574.00,0.0150
2573.00,0.0149
2572.00,0.0149
2571.00,0.0149
2570.00,0.0149
2569.00,0.0149
2568.00,0.0149
2567.00,0.0148
2566.00,0.0147
2565.00,0.0147
2564.00,0.0147
2563.00,0.0148
2562.00,0.0149
2561.00,0.0149
2560.00,0.0149
2559.00,0.0148
2558.00,0.0148
2557.00,0.0147
2556.00,0.0146
2555.00,0.0145
2554.00,0.0145
2553.00,0.0146
2552.00,0.0146
2551.00,0.0146
2550.00,0.0146
2549.00,0.0146
2548.00,0.0146
2547.00,0.0146
2546.00,0.0145
2545.00,0.0145
2544.00,0.0144
2543.00,0.0144
2542.00,0.0143
2541.00,0.0143
2540.00,0.0143
2539.00,0.0144
2538.00,0.0143
2537.00,0.0143
2536.00,0.0143
2535.00,0.0142
2534.00,0.0142
2533.00,0.0143
2532.00,0.0143
2531.00,0.0142
2530.00,0.0142
2529.00,0.0142
2528.00,0.0142
2527.00,0.0142
2526.00,0.0142
2525.00,0.0142
2524.00,0.0142
2523.00,0.0142
2522.00,0.0141
2521.00,0.0141
2520.00,0.0140
2519.00,0.0139
2518.00,0.0139
2517.00,0.0138
2516.00,0.0138
2515.00,0.0138
2514.00,0.0138
2513.00,0.0138
2512.00,0.0138
2511.00,0.0139
2510.00,0.0139
2509.00,0.0139
2508.00,0.0139
2507.00,0.0139
2506.00,0.0138
2505.00,0.0138
2504.00,0.0138
2503.00,0.0138
2502.00,0.0138
2501.00,0.0138
2500.00,0.0137
2499.00,0.0137
2498.00,0.0137
2497.00,0.0137
2496.00,0.0138
2495.00,0.0138
2494.00,0.0138
2493.00,0.0138
2492.00,0.0138
2491.00,0.0139
2490.00,0.0139
2489.00,0.0139
2488.00,0.0139
2487.00,0.0138
2486.00,0.0138
2485.00,0.0137
2484.00,0.0137
2483.00,0.0136
2482.00,0.0136
2481.00,0.0135
2480.00,0.0135
2479.00,0.0135
2478.00,0.0134
2477.00,0.0133
2476.00,0.0133
2475.00,0.0134
2474.00,0.0134
2473.00,0.0135
2472.00,0.0136
2471.00,0.0135
2470.00,0.0134
2469.00,0.0134
2468.00,0.0133
2467.00,0.0133
2466.00,0.0133
2465.00,0.0133
2464.00,0.0133
2463.00,0.0134
2462.00,0.0134
2461.00,0.0134
2460.00,0.0134
2459.00,0.0134
2458.00,0.0134
2457.00,0.0134
2456.00,0.0134
2455.00,0.0135
2454.00,0.0135
2453.00,0.0134
2452.00,0.0134
2451.00,0.0134
2450.00,0.0134
2449.00,0.0134
2448.00,0.0133
2447.00,0.0133
2446.00,0.0132
2445.00,0.0132
2444.00,0.0132
2443.00,0.0133
2442.00,0.0133
2441.00,0.0133
2440.00,0.0134
2439.00,0.0133
2438.00,0.0133
2437.00,0.0133
2436.00,0.0132
2435.00,0.0132
2434.00,0.0131
2433.00,0.0131
2432.00,0.0131
2431.00,0.0131
2430.00,0.0131
2429.00,0.0130
2428.00,0.0130
2427.00,0.0130
2426.00,0.0130
2425.00,0.0131
2424.00,0.0131
2423.00,0.0131
2422.00,0.0130
2421.00,0.0130
2420.00,0.0129
2419.00,0.0129
2418.00,0.0129
2417.00,0.0129
2416.00,0.0128
2415.00,0.0128
2414.00,0.0128
2413.00,0.0128
2412.00,0.0129
2411.00,0.0129
2410.00,0.0129
2409.00,0.0129
2408.00,0.0129
2407.00,0.0129
2406.00,0.0128
2405.00,0.0128
2404.00,0.0128
2403.00,0.0128
2402.00,0.0128
2401.00,0.0128
2400.00,0.0128
2399.00,0.0128
2398.00,0.0128
2397.00,0.0128
2396.00,0.0128
2395.00,0.0128
2394.00,0.0128
2393.00,0.0128
2392.00,0.0128
2391.00,0.0128
2390.00,0.0128
2389.00,0.0128
2388.00,0.0128
2387.00,0.0129
2386.00,0.0129
2385.00,0.0129
2384.00,0.0129
2383.00,0.0129
2382.00,0.0129
2381.00,0.0129
2380.00,0.0129
2379.00,0.0129
2378.00,0.0129
2377.00,0.0129
2376.00,0.0130
2375.00,0.0130
2374.00,0.0130
2373.00,0.0130
2372.00,0.0130
2371.00,0.0130
2370.00,0.0130
2369.00,0.0130
2368.00,0.0130
2367.00,0.0129
2366.00,0.0129
2365.00,0.0130
2364.00,0.0131
2363.00,0.0132
2362.00,0.0132
2361.00,0.0133
2360.00,0.0132
2359.00,0.0132
2358.00,0.0132
2357.00,0.0133
2356.00,0.0134
2355.00,0.0134
2354.00,0.0134
2353.00,0.0134
2352.00,0.0133
2351.00,0.0132
2350.00,0.0132
2349.00,0.0133
2348.00,0.0136
2347.00,0.0139
2346.00,0.0141
2345.00,0.0141
2344.00,0.0139
2343.00,0.0139
2342.00,0.0139
2341.00,0.0140
2340.00,0.0140
2339.00,0.0140
2338.00,0.0139
2337.00,0.0139
2336.00,0.0139
2335.00,0.0140
2334.00,0.0140
2333.00,0.0139
2332.00,0.0138
2331.00,0.0137
2330.00,0.0136
2329.00,0.0137
2328.00,0.0139
2327.00,0.0143
2326.00,0.0148
2325.00,0.0152
2324.00,0.0154
2323.00,0.0154
2322.00,0.0152
2321.00,0.0149
2320.00,0.0147
2319.00,0.0145
2318.00,0.0145
2317.00,0.0145
2316.00,0.0145
2315.00,0.0145
2314.00,0.0144
2313.00,0.0143
2312.00,0.0143
2311.00,0.0143
2310.00,0.0143
2309.00,0.0143
2308.00,0.0142
2307.00,0.0141
2306.00,0.0140
2305.00,0.0140
2304.00,0.0140
2303.00,0.0141
2302.00,0.0142
2301.00,0.0142
2300.00,0.0142
2299.00,0.0143
2298.00,0.0144
2297.00,0.0144
2296.00,0.0145
2295.00,0.0145
2294.00,0.0145
2293.00,0.0146
2292.00,0.0146
2291.00,0.0147
2290.00,0.0148
2289.00,0.0149
2288.00,0.0149
2287.00,0.0149
2286.00,0.0149
2285.00,0.0149
2284.00,0.0149
2283.00,0.0149
2282.00,0.0149
2281.00,0.0148
2280.00,0.0147
2279.00,0.0147
2278.00,0.0146
2277.00,0.0145
2276.00,0.0144
2275.00,0.0143
2274.00,0.0143
2273.00,0.0144
2272.00,0.0145
2271.00,0.0146
2270.00,0.0147
2269.00,0.0147
2268.00,0.0146
2267.00,0.0145
2266.00,0.0143
2265.00,0.0142
2264.00,0.0141
2263.00,0.0141
2262.00,0.0140
2261.00,0.0140
2260.00,0.0139
2259.00,0.0139
2258.00,0.0139
2257.00,0.0139
2256.00,0.0139
2255.00,0.0138
2254.00,0.0138
2253.00,0.0137
2252.00,0.0136
2251.00,0.0136
2250.00,0.0135
2249.00,0.0135
2248.00,0.0136
2247.00,0.0137
2246.00,0.0137
2245.00,0.0137
2244.00,0.0137
2243.00,0.0137
2242.00,0.0137
2241.00,0.0138
2240.00,0.0139
2239.00,0.0139
2238.00,0.0139
2237.00,0.0138
2236.00,0.0138
2235.00,0.0138
2234.00,0.0139
2233.00,0.0138
2232.00,0.0138
2231.00,0.0137
2230.00,0.0137
2229.00,0.0137
2228.00,0.0137
2227.00,0.0137
2226.00,0.0137
2225.00,0.0137
2224.00,0.0138
2223.00,0.0138
2222.00,0.0138
2221.00,0.0139
2220.00,0.0140
2219.00,0.0140
2218.00,0.0139
2217.00,0.0139
2216.00,0.0140
2215.00,0.0141
2214.00,0.0141
2213.00,0.0140
2212.00,0.0139
2211.00,0.0138
2210.00,0.0138
2209.00,0.0138
2208.00,0.0139
2207.00,0.0139
2206.00,0.0139
2205.00,0.0139
2204.00,0.0139
2203.00,0.0138
2202.00,0.0137
2201.00,0.0136
2200.00,0.0135
2199.00,0.0134
2198.00,0.0133
2197.00,0.0133
2196.00,0.0134
2195.00,0.0135
2194.00,0.0135
2193.00,0.0136
2192.00,0.0136
2191.00,0.0136
2190.00,0.0136
2189.00,0.0136
2188.00,0.0137
2187.00,0.0137
2186.00,0.0137
2185.00,0.0136
2184.00,0.0135
2183.00,0.0133
2182.00,0.0132
2181.00,0.0131
2180.00,0.0131
2179.00,0.0130
2178.00,0.0128
2177.00,0.0128
2176.00,0.0127
2175.00,0.0127
2174.00,0.0126
2173.00,0.0126
2172.00,0.0127
2171.00,0.0129
2170.00,0.0132
2169.00,0.0136
2168.00,0.0140
2167.00,0.0143
2166.00,0.0144
2165.00,0.0144
2164.00,0.0144
2163.00,0.0143
2162.00,0.0140
2161.00,0.0134
2160.00,0.0122
2159.00,0.0105
2158.00,0.0091
2157.00,0.0084
2156.00,0.0085
2155.00,0.0089
2154.00,0.0095
2153.00,0.0101
2152.00,0.0106
2151.00,0.0111
2150.00,0.0114
2149.00,0.0114
2148.00,0.0114
2147.00,0.0114
2146.00,0.0113
2145.00,0.0114
2144.00,0.0115
2143.00,0.0115
2142.00,0.0115
2141.00,0.0114
2140.00,0.0114
2139.00,0.0115
2138.00,0.0116
2137.00,0.0117
2136.00,0.0116
2135.00,0.0116
2134.00,0.0115
2133.00,0.0117
2132.00,0.0119
2131.00,0.0122
2130.00,0.0124
2129.00,0.0125
2128.00,0.0127
2127.00,0.0130
2126.00,0.0132
2125.00,0.0133
2124.00,0.0135
2123.00,0.0136
2122.00,0.0137
2121.00,0.0138
2120.00,0.0138
2119.00,0.0139
2118.00,0.0139
2117.00,0.0140
2116.00,0.0142
2115.00,0.0143
2114.00,0.0144
2113.00,0.0144
2112.00,0.0144
2111.00,0.0144
2110.00,0.0145
2109.00,0.0145
2108.00,0.0146
2107.00,0.0146
2106.00,0.0145
2105.00,0.0145
2104.00,0.0145
2103.00,0.0145
2102.00,0.0144
2101.00,0.0144
2100.00,0.0144
2099.00,0.0145
2098.00,0.0144
2097.00,0.0143
2096.00,0.0142
2095.00,0.0140
2094.00,0.0138
2093.00,0.0137
2092.00,0.0137
2091.00,0.0138
2090.00,0.0139
2089.00,0.0140
2088.00,0.0140
2087.00,0.0141
2086.00,0.0141
2085.00,0.0142
2084.00,0.0143
2083.00,0.0144
2082.00,0.0144
2081.00,0.0143
2080.00,0.0142
2079.00,0.0141
2078.00,0.0140
2077.00,0.0139
2076.00,0.0139
2075.00,0.0138
2074.00,0.0137
2073.00,0.0138
2072.00,0.0138
2071.00,0.0137
2070.00,0.0136
2069.00,0.0135
2068.00,0.0133
2067.00,0.0132
2066.00,0.0131
2065.00,0.0129
2064.00,0.0129
2063.00,0.0128
2062.00,0.0128
2061.00,0.0129
2060.00,0.0131
2059.00,0.0133
2058.00,0.0134
2057.00,0.0133
2056.00,0.0130
2055.00,0.0127
2054.00,0.0126
2053.00,0.0128
2052.00,0.0131
2051.00,0.0132
2050.00,0.0130
2049.00,0.0126
2048.00,0.0122
2047.00,0.0119
2046.00,0.0117
2045.00,0.0116
2044.00,0.0116
2043.00,0.0115
2042.00,0.0115
2041.00,0.0115
2040.00,0.0115
2039.00,0.0116
2038.00,0.0117
2037.00,0.0118
2036.00,0.0117
2035.00,0.0116
2034.00,0.0114
2033.00,0.0113
2032.00,0.0113
2031.00,0.0113
2030.00,0.0111
2029.00,0.0108
2028.00,0.0105
2027.00,0.0103
2026.00,0.0102
2025.00,0.0102
2024.00,0.0104
2023.00,0.0105
2022.00,0.0106
2021.00,0.0105
2020.00,0.0104
2019.00,0.0102
2018.00,0.0100
2017.00,0.0098
2016.00,0.0097
2015.00,0.0098
2014.00,0.0099
2013.00,0.0100
2012.00,0.0102
2011.00,0.0102
2010.00,0.0101
2009.00,0.0099
2008.00,0.0097
2007.00,0.0094
2006.00,0.0092
2005.00,0.0092
2004.00,0.0093
2003.00,0.0095
2002.00,0.0098
2001.00,0.0101
2000.00,0.0105
1999.00,0.0107
1998.00,0.0108
1997.00,0.0109
1996.00,0.0109
1995.00,0.0108
1994.00,0.0107
1993.00,0.0107
1992.00,0.0107
1991.00,0.0107
1990.00,0.0108
1989.00,0.0109
1988.00,0.0110
1987.00,0.0109
1986.00,0.0109
1985.00,0.0109
1984.00,0.0110
1983.00,0.0111
1982.00,0.0111
1981.00,0.0112
1980.00,0.0112
1979.00,0.0111
1978.00,0.0108
1977.00,0.0104
1976.00,0.0101
1975.00,0.0099
1974.00,0.0098
1973.00,0.0097
1972.00,0.0098
1971.00,0.0098
1970.00,0.0098
1969.00,0.0096
1968.00,0.0095
1967.00,0.0094
1966.00,0.0094
1965.00,0.0096
1964.00,0.0099
1963.00,0.0100
1962.00,0.0100
1961.00,0.0100
1960.00,0.0099
1959.00,0.0097
1958.00,0.0095
1957.00,0.0094
1956.00,0.0095
1955.00,0.0096
1954.00,0.0096
1953.00,0.0097
1952.00,0.0097
1951.00,0.0098
1950.00,0.0098
1949.00,0.0097
1948.00,0.0096
1947.00,0.0095
1946.00,0.0094
1945.00,0.0094
1944.00,0.0095
1943.00,0.0095
1942.00,0.0096
1941.00,0.0098
1940.00,0.0101
1939.00,0.0103
1938.00,0.0103
1937.00,0.0103
1936.00,0.0102
1935.00,0.0102
1934.00,0.0102
1933.00,0.0102
1932.00,0.0102
1931.00,0.0102
1930.00,0.0102
1929.00,0.0103
1928.00,0.0104
1927.00,0.0103
1926.00,0.0102
1925.00,0.0101
1924.00,0.0099
1923.00,0.0098
1922.00,0.0099
1921.00,0.0102
1920.00,0.0104
1919.00,0.0106
1918.00,0.0106
1917.00,0.0106
1916.00,0.0107
1915.00,0.0107
1914.00,0.0106
1913.00,0.0105
1912.00,0.0105
1911.00,0.0105
1910.00,0.0105
1909.00,0.0104
1908.00,0.0104
1907.00,0.0103
1906.00,0.0103
1905.00,0.0102
1904.00,0.0102
1903.00,0.0101
1902.00,0.0102
1901.00,0.0102
1900.00,0.0102
1899.00,0.0102
1898.00,0.0102
1897.00,0.0102
1896.00,0.0102
1895.00,0.0103
1894.00,0.0103
1893.00,0.0103
1892.00,0.0102
1891.00,0.0101
1890.00,0.0100
1889.00,0.0099
1888.00,0.0100
1887.00,0.0100
1886.00,0.0100
1885.00,0.0100
1884.00,0.0100
1883.00,0.0100
1882.00,0.0101
1881.00,0.0102
1880.00,0.0102
1879.00,0.0101
1878.00,0.0099
1877.00,0.0098
1876.00,0.0098
1875.00,0.0099
1874.00,0.0100
1873.00,0.0100
1872.00,0.0100
1871.00,0.0100
1870.00,0.0099
1869.00,0.0097
1868.00,0.0097
1867.00,0.0097
1866.00,0.0098
1865.00,0.0099
1864.00,0.0099
1863.00,0.0098
1862.00,0.0097
1861.00,0.0097
1860.00,0.0097
1859.00,0.0097
1858.00,0.0098
1857.00,0.0098
1856.00,0.0099
1855.00,0.0099
1854.00,0.0098
1853.00,0.0098
1852.00,0.0098
1851.00,0.0097
1850.00,0.0096
1849.00,0.0095
1848.00,0.0094
1847.00,0.0095
1846.00,0.0096
1845.00,0.0097
1844.00,0.0098
1843.00,0.0097
1842.00,0.0097
1841.00,0.0097
1840.00,0.0098
1839.00,0.0098
1838.00,0.0098
1837.00,0.0097
1836.00,0.0097
1835.00,0.0097
1834.00,0.0096
1833.00,0.0096
1832.00,0.0097
1831.00,0.0097
1830.00,0.0097
1829.00,0.0096
1828.00,0.0096
1827.00,0.0096
1826.00,0.0096
1825.00,0.0095
1824.00,0.0095
1823.00,0.0096
1822.00,0.0096
1821.00,0.0097
1820.00,0.0097
1819.00,0.0097
1818.00,0.0096
1817.00,0.0095
1816.00,0.0095
1815.00,0.0095
1814.00,0.0096
1813.00,0.0096
1812.00,0.0097
1811.00,0.0096
1810.00,0.0097
1809.00,0.0097
1808.00,0.0097
1807.00,0.0097
1806.00,0.0097
1805.00,0.0097
1804.00,0.0096
1803.00,0.0095
1802.00,0.0094
1801.00,0.0094
1800.00,0.0096
1799.00,0.0097
1798.00,0.0097
1797.00,0.0097
1796.00,0.0096
1795.00,0.0096
1794.00,0.0097
1793.00,0.0098
1792.00,0.0098
1791.00,0.0097
1790.00,0.0096
1789.00,0.0096
1788.00,0.0097
1787.00,0.0097
1786.00,0.0096
1785.00,0.0095
1784.00,0.0095
1783.00,0.0095
1782.00,0.0095
1781.00,0.0095
1780.00,0.0096
1779.00,0.0096
1778.00,0.0096
1777.00,0.0096
1776.00,0.0096
1775.00,0.0096
1774.00,0.0097
1773.00,0.0098
1772.00,0.0099
1771.00,0.0098
1770.00,0.0097
1769.00,0.0097
1768.00,0.0097
1767.00,0.0096
1766.00,0.0095
1765.00,0.0095
1764.00,0.0095
1763.00,0.0095
1762.00,0.0095
1761.00,0.0095
1760.00,0.0096
1759.00,0.0098
1758.00,0.0100
1757.00,0.0102
1756.00,0.0104
1755.00,0.0106
1754.00,0.0108
1753.00,0.0110
1752.00,0.0113
1751.00,0.0116
1750.00,0.0118
1749.00,0.0120
1748.00,0.0124
1747.00,0.0127
1746.00,0.0129
1745.00,0.0132
1744.00,0.0134
1743.00,0.0136
1742.00,0.0139
1741.00,0.0143
1740.00,0.0147
1739.00,0.0148
1738.00,0.0149
1737.00,0.0150
1736.00,0.0153
1735.00,0.0157
1734.00,0.0158
1733.00,0.0158
1732.00,0.0159
1731.00,0.0159
1730.00,0.0160
1729.00,0.0161
1728.00,0.0163
1727.00,0.0165
1726.00,0.0167
1725.00,0.0168
1724.00,0.0170
1723.00,0.0172
1722.00,0.0174
1721.00,0.0175
1720.00,0.0178
1719.00,0.0181
1718.00,0.0185
1717.00,0.0189
1716.00,0.0193
1715.00,0.0196
1714.00,0.0199
1713.00,0.0203
1712.00,0.0207
1711.00,0.0212
1710.00,0.0216
1709.00,0.0221
1708.00,0.0227
1707.00,0.0233
1706.00,0.0240
1705.00,0.0248
1704.00,0.0255
1703.00,0.0263
1702.00,0.0273
1701.00,0.0288
1700.00,0.0305
1699.00,0.0320
1698.00,0.0334
1697.00,0.0348
1696.00,0.0367
1695.00,0.0386
1694.00,0.0401
1693.00,0.0415
1692.00,0.0429
1691.00,0.0445
1690.00,0.0462
1689.00,0.0480
1688.00,0.0498
1687.00,0.0516
1686.00,0.0535
1685.00,0.0558
1684.00,0.0586
1683.00,0.0611
1682.00,0.0631
1681.00,0.0648
1680.00,0.0666
1679.00,0.0684
1678.00,0.0702
1677.00,0.0721
1676.00,0.0745
1675.00,0.0770
1674.00,0.0794
1673.00,0.0815
1672.00,0.0834
1671.00,0.0854
1670.00,0.0878
1669.00,0.0904
1668.00,0.0931
1667.00,0.0955
1666.00,0.0975
1665.00,0.0995
1664.00,0.1017
1663.00,0.1044
1662.00,0.1071
1661.00,0.1097
1660.00,0.1122
1659.00,0.1144
1658.00,0.1162
1657.00,0.1178
1656.00,0.1191
1655.00,0.1205
1654.00,0.1224
1653.00,0.1256
1652.00,0.1289
1651.00,0.1307
1650.00,0.1313
1649.00,0.1315
1648.00,0.1319
1647.00,0.1327
1646.00,0.1339
1645.00,0.1351
1644.00,0.1358
1643.00,0.1362
1642.00,0.1362
1641.00,0.1363
1640.00,0.1363
1639.00,0.1363
1638.00,0.1361
1637.00,0.1358
1636.00,0.1357
1635.00,0.1357
1634.00,0.1356
1633.00,0.1349
1632.00,0.1340
1631.00,0.1327
1630.00,0.1313
1629.00,0.1297
1628.00,0.1282
1627.00,0.1266
1626.00,0.1251
1625.00,0.1233
1624.00,0.1213
1623.00,0.1192
1622.00,0.1172
1621.00,0.1153
1620.00,0.1135
1619.00,0.1116
1618.00,0.1094
1617.00,0.1071
1616.00,0.1047
1615.00,0.1026
1614.00,0.1005
1613.00,0.0984
1612.00,0.0962
1611.00,0.0939
1610.00,0.0917
1609.00,0.0895
1608.00,0.0874
1607.00,0.0854
1606.00,0.0835
1605.00,0.0817
1604.00,0.0798
1603.00,0.0780
1602.00,0.0762
1601.00,0.0745
1600.00,0.0729
1599.00,0.0713
1598.00,0.0699
1597.00,0.0684
1596.00,0.0670
1595.00,0.0657
1594.00,0.0644
1593.00,0.0632
1592.00,0.0620
1591.00,0.0609
1590.00,0.0599
1589.00,0.0589
1588.00,0.0581
1587.00,0.0573
1586.00,0.0566
1585.00,0.0560
1584.00,0.0554
1583.00,0.0549
1582.00,0.0544
1581.00,0.0540
1580.00,0.0536
1579.00,0.0533
1578.00,0.0532
1577.00,0.0532
1576.00,0.0533
1575.00,0.0534
1574.00,0.0533
1573.00,0.0531
1572.00,0.0529
1571.00,0.0528
1570.00,0.0530
1569.00,0.0533
1568.00,0.0537
1567.00,0.0541
1566.00,0.0544
1565.00,0.0547
1564.00,0.0550
1563.00,0.0553
1562.00,0.0555
1561.00,0.0558
1560.00,0.0563
1559.00,0.0577
1558.00,0.0596
1557.00,0.0609
1556.00,0.0614
1555.00,0.0617
1554.00,0.0622
1553.00,0.0627
1552.00,0.0630
1551.00,0.0633
1550.00,0.0637
1549.00,0.0641
1548.00,0.0644
1547.00,0.0645
1546.00,0.0643
1545.00,0.0639
1544.00,0.0635
1543.00,0.0633
1542.00,0.0632
1541.00,0.0631
1540.00,0.0628
1539.00,0.0624
1538.00,0.0618
1537.00,0.0609
1536.00,0.0598
1535.00,0.0586
1534.00,0.0574
1533.00,0.0563
1532.00,0.0553
1531.00,0.0545
1530.00,0.0536
1529.00,0.0525
1528.00,0.0513
1527.00,0.0501
1526.00,0.0491
1525.00,0.0483
1524.00,0.0475
1523.00,0.0466
1522.00,0.0457
1521.00,0.0448
1520.00,0.0441
1519.00,0.0433
1518.00,0.0424
1517.00,0.0413
1516.00,0.0402
1515.00,0.0391
1514.00,0.0380
1513.00,0.0368
1512.00,0.0353
1511.00,0.0337
1510.00,0.0322
1509.00,0.0309
1508.00,0.0297
1507.00,0.0287
1506.00,0.0281
1505.00,0.0274
1504.00,0.0265
1503.00,0.0254
1502.00,0.0242
1501.00,0.0232
1500.00,0.0222
1499.00,0.0214
1498.00,0.0207
1497.00,0.0200
1496.00,0.0195
1495.00,0.0189
1494.00,0.0183
1493.00,0.0178
1492.00,0.0172
1491.00,0.0166
1490.00,0.0160
1489.00,0.0156
1488.00,0.0155
1487.00,0.0154
1486.00,0.0154
1485.00,0.0154
1484.00,0.0154
1483.00,0.0154
1482.00,0.0155
1481.00,0.0157
1480.00,0.0160
1479.00,0.0163
1478.00,0.0166
1477.00,0.0169
1476.00,0.0174
1475.00,0.0180
1474.00,0.0187
1473.00,0.0197
1472.00,0.0208
1471.00,0.0217
1470.00,0.0224
1469.00,0.0228
1468.00,0.0231
1467.00,0.0233
1466.00,0.0235
1465.00,0.0239
1464.00,0.0244
1463.00,0.0249
1462.00,0.0252
1461.00,0.0254
1460.00,0.0255
1459.00,0.0256
1458.00,0.0260
1457.00,0.0268
1456.00,0.0278
1455.00,0.0283
1454.00,0.0285
1453.00,0.0284
1452.00,0.0284
1451.00,0.0283
1450.00,0.0282
1449.00,0.0281
1448.00,0.0281
1447.00,0.0281
1446.00,0.0282
1445.00,0.0282
1444.00,0.0283
1443.00,0.0283
1442.00,0.0283
1441.00,0.0284
1440.00,0.0284
1439.00,0.0283
1438.00,0.0283
1437.00,0.0284
1436.00,0.0288
1435.00,0.0291
1434.00,0.0294
1433.00,0.0295
1432.00,0.0297
1431.00,0.0298
1430.00,0.0301
1429.00,0.0305
1428.00,0.0310
1427.00,0.0313
1426.00,0.0316
1425.00,0.0318
1424.00,0.0321
1423.00,0.0324
1422.00,0.0327
1421.00,0.0329
1420.00,0.0331
1419.00,0.0333
1418.00,0.0335
1417.00,0.0338
1416.00,0.0340
1415.00,0.0341
1414.00,0.0341
1413.00,0.0339
1412.00,0.0338
1411.00,0.0336
1410.00,0.0334
1409.00,0.0331
1408.00,0.0328
1407.00,0.0323
1406.00,0.0319
1405.00,0.0315
1404.00,0.0312
1403.00,0.0309
1402.00,0.0305
1401.00,0.0300
1400.00,0.0294
1399.00,0.0287
1398.00,0.0280
1397.00,0.0275
1396.00,0.0269
1395.00,0.0264
1394.00,0.0261
1393.00,0.0258
1392.00,0.0256
1391.00,0.0253
1390.00,0.0250
1389.00,0.0246
1388.00,0.0244
1387.00,0.0243
1386.00,0.0244
1385.00,0.0246
1384.00,0.0248
1383.00,0.0250
1382.00,0.0251
1381.00,0.0252
1380.00,0.0252
1379.00,0.0253
1378.00,0.0252
1377.00,0.0252
1376.00,0.0250
1375.00,0.0247
1374.00,0.0244
1373.00,0.0242
1372.00,0.0241
1371.00,0.0238
1370.00,0.0235
1369.00,0.0231
1368.00,0.0228
1367.00,0.0224
1366.00,0.0220
1365.00,0.0214
1364.00,0.0207
1363.00,0.0202
1362.00,0.0198
1361.00,0.0196
1360.00,0.0196
1359.00,0.0194
1358.00,0.0192
1357.00,0.0190
1356.00,0.0187
1355.00,0.0185
1354.00,0.0182
1353.00,0.0180
1352.00,0.0176
1351.00,0.0173
1350.00,0.0169
1349.00,0.0165
1348.00,0.0161
1347.00,0.0157
1346.00,0.0153
1345.00,0.0149
1344.00,0.0145
1343.00,0.0140
1342.00,0.0135
1341.00,0.0129
1340.00,0.0124
1339.00,0.0120
1338.00,0.0118
1337.00,0.0116
1336.00,0.0115
1335.00,0.0113
1334.00,0.0110
1333.00,0.0107
1332.00,0.0104
1331.00,0.0101
1330.00,0.0099
1329.00,0.0098
1328.00,0.0097
1327.00,0.0096
1326.00,0.0096
1325.00,0.0095
1324.00,0.0095
1323.00,0.0096
1322.00,0.0096
1321.00,0.0097
1320.00,0.0097
1319.00,0.0098
1318.00,0.0098
1317.00,0.0099
1316.00,0.0100
1315.00,0.0100
1314.00,0.0100
1313.00,0.0100
1312.00,0.0100
1311.00,0.0101
1310.00,0.0101
1309.00,0.0102
1308.00,0.0102
1307.00,0.0103
1306.00,0.0104
1305.00,0.0106
1304.00,0.0108
1303.00,0.0111
1302.00,0.0114
1301.00,0.0118
1300.00,0.0123
1299.00,0.0128
1298.00,0.0134
1297.00,0.0141
1296.00,0.0149
1295.00,0.0158
1294.00,0.0167
1293.00,0.0178
1292.00,0.0189
1291.00,0.0201
1290.00,0.0214
1289.00,0.0229
1288.00,0.0245
1287.00,0.0262
1286.00,0.0280
1285.00,0.0298
1284.00,0.0318
1283.00,0.0337
1282.00,0.0358
1281.00,0.0379
1280.00,0.0402
1279.00,0.0425
1278.00,0.0448
1277.00,0.0472
1276.00,0.0496
1275.00,0.0520
1274.00,0.0545
1273.00,0.0569
1272.00,0.0594
1271.00,0.0619
1270.00,0.0644
1269.00,0.0668
1268.00,0.0692
1267.00,0.0714
1266.00,0.0736
1265.00,0.0757
1264.00,0.0778
1263.00,0.0799
1262.00,0.0818
1261.00,0.0837
1260.00,0.0854
1259.00,0.0871
1258.00,0.0887
1257.00,0.0902
1256.00,0.0917
1255.00,0.0931
1254.00,0.0944
1253.00,0.0956
1252.00,0.0968
1251.00,0.0978
1250.00,0.0988
1249.00,0.0998
1248.00,0.1007
1247.00,0.1017
1246.00,0.1027
1245.00,0.1036
1244.00,0.1045
1243.00,0.1055
1242.00,0.1064
1241.00,0.1073
1240.00,0.1083
1239.00,0.1094
1238.00,0.1106
1237.00,0.1118
1236.00,0.1129
1235.00,0.1140
1234.00,0.1151
1233.00,0.1161
1232.00,0.1172
1231.00,0.1182
1230.00,0.1190
1229.00,0.1199
1228.00,0.1207
1227.00,0.1214
1226.00,0.1220
1225.00,0.1226
1224.00,0.1232
1223.00,0.1236
1222.00,0.1239
1221.00,0.1240
1220.00,0.1240
1219.00,0.1237
1218.00,0.1233
1217.00,0.1227
1216.00,0.1219
1215.00,0.1209
1214.00,0.1196
1213.00,0.1182
1212.00,0.1167
1211.00,0.1150
1210.00,0.1131
1209.00,0.1111
1208.00,0.1089
1207.00,0.1066
1206.00,0.1043
1205.00,0.1019
1204.00,0.0994
1203.00,0.0970
1202.00,0.0946
1201.00,0.0923
1200.00,0.0901
1199.00,0.0880
1198.00,0.0861
1197.00,0.0844
1196.00,0.0828
1195.00,0.0813
1194.00,0.0799
1193.00,0.0786
1192.00,0.0773
1191.00,0.0761
1190.00,0.0748
1189.00,0.0735
1188.00,0.0721
1187.00,0.0708
1186.00,0.0695
1185.00,0.0684
1184.00,0.0675
1183.00,0.0666
1182.00,0.0660
1181.00,0.0655
1180.00,0.0653
1179.00,0.0652
1178.00,0.0653
1177.00,0.0656
1176.00,0.0661
1175.00,0.0668
1174.00,0.0677
1173.00,0.0687
1172.00,0.0699
1171.00,0.0712
1170.00,0.0728
1169.00,0.0745
1168.00,0.0765
1167.00,0.0785
1166.00,0.0807
1165.00,0.0829
1164.00,0.0852
1163.00,0.0874
1162.00,0.0895
1161.00,0.0915
1160.00,0.0934
1159.00,0.0950
1158.00,0.0965
1157.00,0.0978
1156.00,0.0989
1155.00,0.0996
1154.00,0.1002
1153.00,0.1006
1152.00,0.1008
1151.00,0.1007
1150.00,0.1003
1149.00,0.0997
1148.00,0.0987
1147.00,0.0976
1146.00,0.0962
1145.00,0.0947
1144.00,0.0931
1143.00,0.0915
1142.00,0.0899
1141.00,0.0883
1140.00,0.0870
1139.00,0.0859
1138.00,0.0851
1137.00,0.0845
1136.00,0.0842
1135.00,0.0842
1134.00,0.0846
1133.00,0.0851
1132.00,0.0858
1131.00,0.0867
1130.00,0.0878
1129.00,0.0890
1128.00,0.0901
1127.00,0.0910
1126.00,0.0916
1125.00,0.0918
1124.00,0.0918
1123.00,0.0913
1122.00,0.0907
1121.00,0.0899
1120.00,0.0891
1119.00,0.0884
1118.00,0.0877
1117.00,0.0872
1116.00,0.0867
1115.00,0.0862
1114.00,0.0859
1113.00,0.0857
1112.00,0.0857
1111.00,0.0858
1110.00,0.0861
1109.00,0.0867
1108.00,0.0875
1107.00,0.0886
1106.00,0.0898
1105.00,0.0914
1104.00,0.0930
1103.00,0.0948
1102.00,0.0968
1101.00,0.0990
1100.00,0.1014
1099.00,0.1038
1098.00,0.1061
1097.00,0.1084
1096.00,0.1106
1095.00,0.1129
1094.00,0.1152
1093.00,0.1175
1092.00,0.1200
1091.00,0.1225
1090.00,0.1252
1089.00,0.1280
1088.00,0.1309
1087.00,0.1339
1086.00,0.1371
1085.00,0.1404
1084.00,0.1438
1083.00,0.1474
1082.00,0.1510
1081.00,0.1547
1080.00,0.1585
1079.00,0.1622
1078.00,0.1659
1077.00,0.1694
1076.00,0.1728
1075.00,0.1757
1074.00,0.1783
1073.00,0.1805
1072.00,0.1825
1071.00,0.1841
1070.00,0.1854
1069.00,0.1865
1068.00,0.1872
1067.00,0.1876
1066.00,0.1877
1065.00,0.1877
1064.00,0.1875
1063.00,0.1871
1062.00,0.1866
1061.00,0.1860
1060.00,0.1855
1059.00,0.1851
1058.00,0.1848
1057.00,0.1849
1056.00,0.1851
1055.00,0.1856
1054.00,0.1865
1053.00,0.1876
1052.00,0.1888
1051.00,0.1901
1050.00,0.1915
1049.00,0.1932
1048.00,0.1951
1047.00,0.1973
1046.00,0.1996
1045.00,0.2019
1044.00,0.2043
1043.00,0.2065
1042.00,0.2086
1041.00,0.2104
1040.00,0.2120
1039.00,0.2132
1038.00,0.2141
1037.00,0.2149
1036.00,0.2155
1035.00,0.2159
1034.00,0.2162
1033.00,0.2167
1032.00,0.2173
1031.00,0.2179
1030.00,0.2184
1029.00,0.2189
1028.00,0.2191
1027.00,0.2189
1026.00,0.2182
1025.00,0.2171
1024.00,0.2156
1023.00,0.2137
1022.00,0.2114
1021.00,0.2087
1020.00,0.2058
1019.00,0.2027
1018.00,0.1994
1017.00,0.1960
1016.00,0.1925
1015.00,0.1890
1014.00,0.1855
1013.00,0.1823
1012.00,0.1792
1011.00,0.1763
1010.00,0.1735
1009.00,0.1709
1008.00,0.1684
1007.00,0.1660
1006.00,0.1634
1005.00,0.1608
1004.00,0.1579
1003.00,0.1548
1002.00,0.1514
1001.00,0.1476
1000.00,0.1434
999.00,0.1389
998.00,0.1344
997.00,0.1301
996.00,0.1261
995.00,0.1222
994.00,0.1185
993.00,0.1149
992.00,0.1114
991.00,0.1080
990.00,0.1048
989.00,0.1016
988.00,0.0985
987.00,0.0954
986.00,0.0923
985.00,0.0893
984.00,0.0865
983.00,0.0838
982.00,0.0813
981.00,0.0792
980.00,0.0773
979.00,0.0757
978.00,0.0743
977.00,0.0730
976.00,0.0717
975.00,0.0703
974.00,0.0689
973.00,0.0675
972.00,0.0660
971.00,0.0643
970.00,0.0625
969.00,0.0605
968.00,0.0580
967.00,0.0552
966.00,0.0521
965.00,0.0488
964.00,0.0454
963.00,0.0421
962.00,0.0388
961.00,0.0357
960.00,0.0329
959.00,0.0304
958.00,0.0282
957.00,0.0263
956.00,0.0246
955.00,0.0231
954.00,0.0219
953.00,0.0210
952.00,0.0204
951.00,0.0200
950.00,0.0198
949.00,0.0199
948.00,0.0201
947.00,0.0206
946.00,0.0213
945.00,0.0224
944.00,0.0238
943.00,0.0256
942.00,0.0278
941.00,0.0303
940.00,0.0331
939.00,0.0361
938.00,0.0393
937.00,0.0424
936.00,0.0455
935.00,0.0483
934.00,0.0509
933.00,0.0529
932.00,0.0545
931.00,0.0556
930.00,0.0561
929.00,0.0561
928.00,0.0556
927.00,0.0548
926.00,0.0536
925.00,0.0523
924.00,0.0509
923.00,0.0494
922.00,0.0478
921.00,0.0462
920.00,0.0445
919.00,0.0428
918.00,0.0411
917.00,0.0396
916.00,0.0380
915.00,0.0364
914.00,0.0348
913.00,0.0333
912.00,0.0319
911.00,0.0305
910.00,0.0292
909.00,0.0281
908.00,0.0271
907.00,0.0262
906.00,0.0255
905.00,0.0248
904.00,0.0242
903.00,0.0237
902.00,0.0232
901.00,0.0227
900.00,0.0223
899.00,0.0219
898.00,0.0216
897.00,0.0214
896.00,0.0213
895.00,0.0212
894.00,0.0212
893.00,0.0212
892.00,0.0211
891.00,0.0210
890.00,0.0208
889.00,0.0205
888.00,0.0201
887.00,0.0195
886.00,0.0187
885.00,0.0177
884.00,0.0164
883.00,0.0150
882.00,0.0134
881.00,0.0120
880.00,0.0108
879.00,0.0098
878.00,0.0092
877.00,0.0088
876.00,0.0088
875.00,0.0090
874.00,0.0093
873.00,0.0096
872.00,0.0097
871.00,0.0097
870.00,0.0096
869.00,0.0095
868.00,0.0093
867.00,0.0093
866.00,0.0094
865.00,0.0096
864.00,0.0099
863.00,0.0105
862.00,0.0114
861.00,0.0124
860.00,0.0135
859.00,0.0149
858.00,0.0164
857.00,0.0181
856.00,0.0200
855.00,0.0220
854.00,0.0241
853.00,0.0262
852.00,0.0283
851.00,0.0303
850.00,0.0322
849.00,0.0339
848.00,0.0353
847.00,0.0363
846.00,0.0370
845.00,0.0374
844.00,0.0372
843.00,0.0366
842.00,0.0358
841.00,0.0347
840.00,0.0336
839.00,0.0326
838.00,0.0316
837.00,0.0307
836.00,0.0297
835.00,0.0287
834.00,0.0277
833.00,0.0267
832.00,0.0256
831.00,0.0246
830.00,0.0237
829.00,0.0228
828.00,0.0218
827.00,0.0208
826.00,0.0198
825.00,0.0189
824.00,0.0181
823.00,0.0174
822.00,0.0167
821.00,0.0160
820.00,0.0154
819.00,0.0149
818.00,0.0145
817.00,0.0142
816.00,0.0140
815.00,0.0138
814.00,0.0138
813.00,0.0138
812.00,0.0138
811.00,0.0138
810.00,0.0139
809.00,0.0140
808.00,0.0141
807.00,0.0141
806.00,0.0141
805.00,0.0139
804.00,0.0137
803.00,0.0134
802.00,0.0131
801.00,0.0128
800.00,0.0125
799.00,0.0122
798.00,0.0119
797.00,0.0116
796.00,0.0112
795.00,0.0108
794.00,0.0104
793.00,0.0101
792.00,0.0098
791.00,0.0097
790.00,0.0095
789.00,0.0094
788.00,0.0093
787.00,0.0094
786.00,0.0095
785.00,0.0096
784.00,0.0097
783.00,0.0099
782.00,0.0102
781.00,0.0105
780.00,0.0109
779.00,0.0114
778.00,0.0120
777.00,0.0126
776.00,0.0132
775.00,0.0136
774.00,0.0140
773.00,0.0143
772.00,0.0144
771.00,0.0143
770.00,0.0140
769.00,0.0135
768.00,0.0130
767.00,0.0123
766.00,0.0117
765.00,0.0110
764.00,0.0103
763.00,0.0098
762.00,0.0094
761.00,0.0092
760.00,0.0090
759.00,0.0090
758.00,0.0091
757.00,0.0092
756.00,0.0094
755.00,0.0097
754.00,0.0101
753.00,0.0106
752.00,0.0112
751.00,0.0121
750.00,0.0131
749.00,0.0143
748.00,0.0155
747.00,0.0166
746.00,0.0178
745.00,0.0188
744.00,0.0195
743.00,0.0201
742.00,0.0207
741.00,0.0213
740.00,0.0217
739.00,0.0221
738.00,0.0223
737.00,0.0224
736.00,0.0225
735.00,0.0226
734.00,0.0227
733.00,0.0228
732.00,0.0229
731.00,0.0230
730.00,0.0231
729.00,0.0233
728.00,0.0235
727.00,0.0238
726.00,0.0240
725.00,0.0241
724.00,0.0241
723.00,0.0240
722.00,0.0238
721.00,0.0236
720.00,0.0232
719.00,0.0228
718.00,0.0225
717.00,0.0224
716.00,0.0224
715.00,0.0224
714.00,0.0227
713.00,0.0230
712.00,0.0235
711.00,0.0242
710.00,0.0250
709.00,0.0259
708.00,0.0269
707.00,0.0278
706.00,0.0287
705.00,0.0295
704.00,0.0303
703.00,0.0309
702.00,0.0314
701.00,0.0317
700.00,0.0318
699.00,0.0316
698.00,0.0312
697.00,0.0307
696.00,0.0300
695.00,0.0291
694.00,0.0281
693.00,0.0269
692.00,0.0255
691.00,0.0239
690.00,0.0224
689.00,0.0211
688.00,0.0199
687.00,0.0189
686.00,0.0180
685.00,0.0172
684.00,0.0164
683.00,0.0158
682.00,0.0152
681.00,0.0148
680.00,0.0145
679.00,0.0142
678.00,0.0140
677.00,0.0138
676.00,0.0137
675.00,0.0137
674.00,0.0139
673.00,0.0141
672.00,0.0141
671.00,0.0136
670.00,0.0130
669.00,0.0125
668.00,0.0127
667.00,0.0137
666.00,0.0146
665.00,0.0149
664.00,0.0149
663.00,0.0150
662.00,0.0152
661.00,0.0156
660.00,0.0159
659.00,0.0160
658.00,0.0159
657.00,0.0155
656.00,0.0149
655.00,0.0143
654.00,0.0138
653.00,0.0134
652.00,0.0131
651.00,0.0128
650.00,0.0124
649.00,0.0120
648.00,0.0113
647.00,0.0108
646.00,0.0104
645.00,0.0103
644.00,0.0103
643.00,0.0101
642.00,0.0099
641.00,0.0095
640.00,0.0092
639.00,0.0089
638.00,0.0088
637.00,0.0089
636.00,0.0091
635.00,0.0096
634.00,0.0103
633.00,0.0113
632.00,0.0123
631.00,0.0133
630.00,0.0144
629.00,0.0158
628.00,0.0172
627.00,0.0187
626.00,0.0201
625.00,0.0215
624.00,0.0230
623.00,0.0245
622.00,0.0261
621.00,0.0276
620.00,0.0291
619.00,0.0305
618.00,0.0318
617.00,0.0330
616.00,0.0341
615.00,0.0348
614.00,0.0353
613.00,0.0357
612.00,0.0362
611.00,0.0368
610.00,0.0372
609.00,0.0375
608.00,0.0376
607.00,0.0376
606.00,0.0378
605.00,0.0380
604.00,0.0381
603.00,0.0381
602.00,0.0380
601.00,0.0380
600.00,0.0379
599.00,0.0378
598.00,0.0376
597.00,0.0374
596.00,0.0373
595.00,0.0372
594.00,0.0374
593.00,0.0377
592.00,0.0381
591.00,0.0385
590.00,0.0389
589.00,0.0395
588.00,0.0403
587.00,0.0412
586.00,0.0423
585.00,0.0436
584.00,0.0452
583.00,0.0468
582.00,0.0481
581.00,0.0491
580.00,0.0498
579.00,0.0503
578.00,0.0505
577.00,0.0506
576.00,0.0506
575.00,0.0501
574.00,0.0493
573.00,0.0482
572.00,0.0472
571.00,0.0463
570.00,0.0454
569.00,0.0443
568.00,0.0430
567.00,0.0417
566.00,0.0406
565.00,0.0397
564.00,0.0387
563.00,0.0378
562.00,0.0370
561.00,0.0363
560.00,0.0358
559.00,0.0353
558.00,0.0348
557.00,0.0342
556.00,0.0336
555.00,0.0330
554.00,0.0323
553.00,0.0316
552.00,0.0311
551.00,0.0308
550.00,0.0308
549.00,0.0308
548.00,0.0308
547.00,0.0310
546.00,0.0311
545.00,0.0313
544.00,0.0314
543.00,0.0316
542.00,0.0316
541.00,0.0317
540.00,0.0316
539.00,0.0314
538.00,0.0308
537.00,0.0302
536.00,0.0296
535.00,0.0292
534.00,0.0290
533.00,0.0286
532.00,0.0279
531.00,0.0271
530.00,0.0265
529.00,0.0259
528.00,0.0253
527.00,0.0250
526.00,0.0250
525.00,0.0255
524.00,0.0260
523.00,0.0261
522.00,0.0255
521.00,0.0244
520.00,0.0232
519.00,0.0224
518.00,0.0220
517.00,0.0218
516.00,0.0213
515.00,0.0208
514.00,0.0201
513.00,0.0193
512.00,0.0181
511.00,0.0169
510.00,0.0158
509.00,0.0150
508.00,0.0144
507.00,0.0138
506.00,0.0132
505.00,0.0125
504.00,0.0116
503.00,0.0107
502.00,0.0100
501.00,0.0094
500.00,0.0088
499.00,0.0086
498.00,0.0088
497.00,0.0095
496.00,0.0100
495.00,0.0100
494.00,0.0095
493.00,0.0088
492.00,0.0085
491.00,0.0088
490.00,0.0097
489.00,0.0105
488.00,0.0110
487.00,0.0113
486.00,0.0118
485.00,0.0127
484.00,0.0140
483.00,0.0153
482.00,0.0164
481.00,0.0170
480.00,0.0169
479.00,0.0163
478.00,0.0158
477.00,0.0156
476.00,0.0159
475.00,0.0164
474.00,0.0166
473.00,0.0168
472.00,0.0170
471.00,0.0173
470.00,0.0172
469.00,0.0165
468.00,0.0158
467.00,0.0157
466.00,0.0163
465.00,0.0172
464.00,0.0178
463.00,0.0180
462.00,0.0176
461.00,0.0166
460.00,0.0156
459.00,0.0151
458.00,0.0154
457.00,0.0157
456.00,0.0152
455.00,0.0137
454.00,0.0118
453.00,0.0103
452.00,0.0097
451.00,0.0092
450.00,0.0085
