Created as New Dataset,Sample 010 By Administrator Date Monday, June 09 2025
cm-1,A
4000.00,0.0050
3999.00,0.0050
3998.00,0.0050
3997.00,0.0050
3996.00,0.0051
3995.00,0.0051
3994.00,0.0051
3993.00,0.0051
3992.00,0.0051
3991.00,0.0051
3990.00,0.0051
3989.00,0.0050
3988.00,0.0050
3987.00,0.0050
3986.00,0.0050
3985.00,0.0050
3984.00,0.0051
3983.00,0.0051
3982.00,0.0051
3981.00,0.0051
3980.00,0.0051
3979.00,0.0051
3978.00,0.0051
3977.00,0.0051
3976.00,0.0051
3975.00,0.0051
3974.00,0.0051
3973.00,0.0051
3972.00,0.0052
3971.00,0.0052
3970.00,0.0052
3969.00,0.0053
3968.00,0.0052
3967.00,0.0052
3966.00,0.0052
3965.00,0.0052
3964.00,0.0052
3963.00,0.0052
3962.00,0.0051
3961.00,0.0051
3960.00,0.0051
3959.00,0.0052
3958.00,0.0052
3957.00,0.0053
3956.00,0.0053
3955.00,0.0053
3954.00,0.0052
3953.00,0.0052
3952.00,0.0052
3951.00,0.0052
3950.00,0.0051
3949.00,0.0051
3948.00,0.0051
3947.00,0.0052
3946.00,0.0052
3945.00,0.0053
3944.00,0.0053
3943.00,0.0053
3942.00,0.0053
3941.00,0.0052
3940.00,0.0052
3939.00,0.0052
3938.00,0.0052
3937.00,0.0052
3936.00,0.0052
3935.00,0.0053
3934.00,0.0053
3933.00,0.0053
3932.00,0.0053
3931.00,0.0052
3930.00,0.0052
3929.00,0.0052
3928.00,0.0052
3927.00,0.0052
3926.00,0.0052
3925.00,0.0052
3924.00,0.0053
3923.00,0.0053
3922.00,0.0053
3921.00,0.0053
3920.00,0.0053
3919.00,0.0053
3918.00,0.0052
3917.00,0.0052
3916.00,0.0052
3915.00,0.0051
3914.00,0.0051
3913.00,0.0051
3912.00,0.0051
3911.00,0.0051
3910.00,0.0051
3909.00,0.0051
3908.00,0.0052
3907.00,0.0052
3906.00,0.0052
3905.00,0.0053
3904.00,0.0053
3903.00,0.0053
3902.00,0.0053
3901.00,0.0052
3900.00,0.0051
3899.00,0.0051
3898.00,0.0050
3897.00,0.0051
3896.00,0.0051
3895.00,0.0051
3894.00,0.0051
3893.00,0.0051
3892.00,0.0051
3891.00,0.0051
3890.00,0.0051
3889.00,0.0052
3888.00,0.0052
3887.00,0.0052
3886.00,0.0053
3885.00,0.0053
3884.00,0.0052
3883.00,0.0052
3882.00,0.0052
3881.00,0.0052
3880.00,0.0052
3879.00,0.0051
3878.00,0.0051
3877.00,0.0051
3876.00,0.0051
3875.00,0.0051
3874.00,0.0051
3873.00,0.0052
3872.00,0.0052
3871.00,0.0052
3870.00,0.0052
3869.00,0.0051
3868.00,0.0051
3867.00,0.0051
3866.00,0.0052
3865.00,0.0052
3864.00,0.0051
3863.00,0.0051
3862.00,0.0051
3861.00,0.0051
3860.00,0.0051
3859.00,0.0051
3858.00,0.0051
3857.00,0.0051
3856.00,0.0051
3855.00,0.0051
3854.00,0.0051
3853.00,0.0051
3852.00,0.0051
3851.00,0.0051
3850.00,0.0051
3849.00,0.0051
3848.00,0.0051
3847.00,0.0051
3846.00,0.0051
3845.00,0.0051
3844.00,0.0051
3843.00,0.0052
3842.00,0.0052
3841.00,0.0052
3840.00,0.0052
3839.00,0.0052
3838.00,0.0052
3837.00,0.0052
3836.00,0.0052
3835.00,0.0052
3834.00,0.0052
3833.00,0.0052
3832.00,0.0051
3831.00,0.0051
3830.00,0.0050
3829.00,0.0050
3828.00,0.0050
3827.00,0.0051
3826.00,0.0051
3825.00,0.0051
3824.00,0.0052
3823.00,0.0052
3822.00,0.0052
3821.00,0.0051
3820.00,0.0051
3819.00,0.0052
3818.00,0.0052
3817.00,0.0051
3816.00,0.0051
3815.00,0.0051
3814.00,0.0051
3813.00,0.0051
3812.00,0.0051
3811.00,0.0051
3810.00,0.0051
3809.00,0.0052
3808.00,0.0052
3807.00,0.0052
3806.00,0.0052
3805.00,0.0052
3804.00,0.0052
3803.00,0.0052
3802.00,0.0052
3801.00,0.0052
3800.00,0.0052
3799.00,0.0053
3798.00,0.0053
3797.00,0.0053
3796.00,0.0053
3795.00,0.0053
3794.00,0.0053
3793.00,0.0053
3792.00,0.0053
3791.00,0.0053
3790.00,0.0053
3789.00,0.0054
3788.00,0.0054
3787.00,0.0055
3786.00,0.0055
3785.00,0.0054
3784.00,0.0054
3783.00,0.0054
3782.00,0.0054
3781.00,0.0054
3780.00,0.0054
3779.00,0.0055
3778.00,0.0055
3777.00,0.0055
3776.00,0.0054
3775.00,0.0054
3774.00,0.0055
3773.00,0.0055
3772.00,0.0055
3771.00,0.0056
3770.00,0.0056
3769.00,0.0056
3768.00,0.0056
3767.00,0.0056
3766.00,0.0056
3765.00,0.0056
3764.00,0.0056
3763.00,0.0056
3762.00,0.0057
3761.00,0.0057
3760.00,0.0057
3759.00,0.0058
3758.00,0.0058
3757.00,0.0058
3756.00,0.0058
3755.00,0.0059
3754.00,0.0059
3753.00,0.0059
3752.00,0.0059
3751.00,0.0059
3750.00,0.0059
3749.00,0.0059
3748.00,0.0060
3747.00,0.0060
3746.00,0.0060
3745.00,0.0060
3744.00,0.0061
3743.00,0.0061
3742.00,0.0062
3741.00,0.0062
3740.00,0.0062
3739.00,0.0062
3738.00,0.0062
3737.00,0.0063
3736.00,0.0063
3735.00,0.0064
3734.00,0.0064
3733.00,0.0063
3732.00,0.0063
3731.00,0.0063
3730.00,0.0063
3729.00,0.0064
3728.00,0.0064
3727.00,0.0065
3726.00,0.0065
3725.00,0.0065
3724.00,0.0066
3723.00,0.0066
3722.00,0.0066
3721.00,0.0066
3720.00,0.0067
3719.00,0.0067
3718.00,0.0067
3717.00,0.0068
3716.00,0.0068
3715.00,0.0069
3714.00,0.0069
3713.00,0.0069
3712.00,0.0069
3711.00,0.0070
3710.00,0.0071
3709.00,0.0072
3708.00,0.0073
3707.00,0.0074
3706.00,0.0075
3705.00,0.0076
3704.00,0.0076
3703.00,0.0077
3702.00,0.0078
3701.00,0.0079
3700.00,0.0079
3699.00,0.0080
3698.00,0.0081
3697.00,0.0082
3696.00,0.0083
3695.00,0.0084
3694.00,0.0085
3693.00,0.0086
3692.00,0.0087
3691.00,0.0089
3690.00,0.0091
3689.00,0.0093
3688.00,0.0095
3687.00,0.0098
3686.00,0.0100
3685.00,0.0101
3684.00,0.0103
3683.00,0.0104
3682.00,0.0105
3681.00,0.0107
3680.00,0.0109
3679.00,0.0111
3678.00,0.0113
3677.00,0.0116
3676.00,0.0119
3675.00,0.0123
3674.00,0.0126
3673.00,0.0129
3672.00,0.0132
3671.00,0.0135
3670.00,0.0139
3669.00,0.0142
3668.00,0.0146
3667.00,0.0149
3666.00,0.0152
3665.00,0.0155
3664.00,0.0158
3663.00,0.0162
3662.00,0.0165
3661.00,0.0169
3660.00,0.0174
3659.00,0.0178
3658.00,0.0182
3657.00,0.0187
3656.00,0.0192
3655.00,0.0198
3654.00,0.0202
3653.00,0.0206
3652.00,0.0210
3651.00,0.0215
3650.00,0.0222
3649.00,0.0230
3648.00,0.0239
3647.00,0.0247
3646.00,0.0253
3645.00,0.0259
3644.00,0.0264
3643.00,0.0268
3642.00,0.0273
3641.00,0.0278
3640.00,0.0284
3639.00,0.0290
3638.00,0.0296
3637.00,0.0301
3636.00,0.0308
3635.00,0.0314
3634.00,0.0320
3633.00,0.0325
3632.00,0.0330
3631.00,0.0336
3630.00,0.0344
3629.00,0.0354
3628.00,0.0366
3627.00,0.0377
3626.00,0.0385
3625.00,0.0392
3624.00,0.0396
3623.00,0.0401
3622.00,0.0406
3621.00,0.0412
3620.00,0.0419
3619.00,0.0429
3618.00,0.0438
3617.00,0.0446
3616.00,0.0454
3615.00,0.0461
3614.00,0.0467
3613.00,0.0474
3612.00,0.0481
3611.00,0.0488
3610.00,0.0496
3609.00,0.0505
3608.00,0.0514
3607.00,0.0522
3606.00,0.0530
3605.00,0.0537
3604.00,0.0543
3603.00,0.0549
3602.00,0.0556
3601.00,0.0563
3600.00,0.0570
3599.00,0.0577
3598.00,0.0585
3597.00,0.0592
3596.00,0.0600
3595.00,0.0609
3594.00,0.0618
3593.00,0.0626
3592.00,0.0632
3591.00,0.0638
3590.00,0.0642
3589.00,0.0649
3588.00,0.0657
3587.00,0.0668
3586.00,0.0679
3585.00,0.0688
3584.00,0.0696
3583.00,0.0703
3582.00,0.0709
3581.00,0.0715
3580.00,0.0721
3579.00,0.0728
3578.00,0.0735
3577.00,0.0743
3576.00,0.0750
3575.00,0.0758
3574.00,0.0766
3573.00,0.0773
3572.00,0.0780
3571.00,0.0785
3570.00,0.0790
3569.00,0.0796
3568.00,0.0804
3567.00,0.0816
3566.00,0.0828
3565.00,0.0839
3564.00,0.0848
3563.00,0.0855
3562.00,0.0861
3561.00,0.0867
3560.00,0.0873
3559.00,0.0880
3558.00,0.0887
3557.00,0.0893
3556.00,0.0900
3555.00,0.0906
3554.00,0.0912
3553.00,0.0920
3552.00,0.0928
3551.00,0.0936
3550.00,0.0944
3549.00,0.0951
3548.00,0.0958
3547.00,0.0966
3546.00,0.0975
3545.00,0.0984
3544.00,0.0993
3543.00,0.1001
3542.00,0.1007
3541.00,0.1013
3540.00,0.1018
3539.00,0.1024
3538.00,0.1031
3537.00,0.1038
3536.00,0.1045
3535.00,0.1052
3534.00,0.1059
3533.00,0.1065
3532.00,0.1072
3531.00,0.1078
3530.00,0.1084
3529.00,0.1091
3528.00,0.1099
3527.00,0.1107
3526.00,0.1115
3525.00,0.1123
3524.00,0.1131
3523.00,0.1138
3522.00,0.1145
3521.00,0.1151
3520.00,0.1157
3519.00,0.1164
3518.00,0.1170
3517.00,0.1177
3516.00,0.1184
3515.00,0.1190
3514.00,0.1196
3513.00,0.1202
3512.00,0.1208
3511.00,0.1214
3510.00,0.1221
3509.00,0.1228
3508.00,0.1236
3507.00,0.1243
3506.00,0.1249
3505.00,0.1256
3504.00,0.1263
3503.00,0.1270
3502.00,0.1278
3501.00,0.1286
3500.00,0.1293
3499.00,0.1300
3498.00,0.1306
3497.00,0.1312
3496.00,0.1318
3495.00,0.1324
3494.00,0.1330
3493.00,0.1337
3492.00,0.1343
3491.00,0.1350
3490.00,0.1357
3489.00,0.1364
3488.00,0.1371
3487.00,0.1378
3486.00,0.1383
3485.00,0.1389
3484.00,0.1396
3483.00,0.1403
3482.00,0.1411
3481.00,0.1418
3480.00,0.1425
3479.00,0.1432
3478.00,0.1437
3477.00,0.1442
3476.00,0.1448
3475.00,0.1454
3474.00,0.1461
3473.00,0.1468
3472.00,0.1476
3471.00,0.1483
3470.00,0.1490
3469.00,0.1496
3468.00,0.1503
3467.00,0.1509
3466.00,0.1514
3465.00,0.1520
3464.00,0.1526
3463.00,0.1532
3462.00,0.1539
3461.00,0.1546
3460.00,0.1552
3459.00,0.1558
3458.00,0.1564
3457.00,0.1570
3456.00,0.1575
3455.00,0.1581
3454.00,0.1588
3453.00,0.1594
3452.00,0.1599
3451.00,0.1604
3450.00,0.1610
3449.00,0.1615
3448.00,0.1621
3447.00,0.1628
3446.00,0.1635
3445.00,0.1642
3444.00,0.1649
3443.00,0.1655
3442.00,0.1660
3441.00,0.1667
3440.00,0.1673
3439.00,0.1679
3438.00,0.1685
3437.00,0.1692
3436.00,0.1698
3435.00,0.1703
3434.00,0.1708
3433.00,0.1713
3432.00,0.1719
3431.00,0.1724
3430.00,0.1730
3429.00,0.1735
3428.00,0.1740
3427.00,0.1746
3426.00,0.1751
3425.00,0.1756
3424.00,0.1761
3423.00,0.1766
3422.00,0.1771
3421.00,0.1777
3420.00,0.1782
3419.00,0.1788
3418.00,0.1793
3417.00,0.1798
3416.00,0.1804
3415.00,0.1809
3414.00,0.1814
3413.00,0.1819
3412.00,0.1824
3411.00,0.1828
3410.00,0.1832
3409.00,0.1836
3408.00,0.1840
3407.00,0.1843
3406.00,0.1847
3405.00,0.1852
3404.00,0.1858
3403.00,0.1863
3402.00,0.1868
3401.00,0.1872
3400.00,0.1875
3399.00,0.1878
3398.00,0.1881
3397.00,0.1884
3396.00,0.1888
3395.00,0.1891
3394.00,0.1895
3393.00,0.1899
3392.00,0.1901
3391.00,0.1904
3390.00,0.1905
3389.00,0.1907
3388.00,0.1908
3387.00,0.1910
3386.00,0.1912
3385.00,0.1915
3384.00,0.1917
3383.00,0.1920
3382.00,0.1923
3381.00,0.1925
3380.00,0.1927
3379.00,0.1928
3378.00,0.1930
3377.00,0.1931
3376.00,0.1932
3375.00,0.1934
3374.00,0.1936
3373.00,0.1937
3372.00,0.1939
3371.00,0.1941
3370.00,0.1943
3369.00,0.1944
3368.00,0.1944
3367.00,0.1944
3366.00,0.1944
3365.00,0.1945
3364.00,0.1945
3363.00,0.1946
3362.00,0.1946
3361.00,0.1946
3360.00,0.1946
3359.00,0.1947
3358.00,0.1947
3357.00,0.1947
3356.00,0.1948
3355.00,0.1948
3354.00,0.1948
3353.00,0.1948
3352.00,0.1949
3351.00,0.1949
3350.00,0.1949
3349.00,0.1948
3348.00,0.1947
3347.00,0.1947
3346.00,0.1947
3345.00,0.1947
3344.00,0.1946
3343.00,0.1946
3342.00,0.1945
3341.00,0.1944
3340.00,0.1942
3339.00,0.1942
3338.00,0.1941
3337.00,0.1941
3336.00,0.1940
3335.00,0.1940
3334.00,0.1940
3333.00,0.1939
3332.00,0.1938
3331.00,0.1936
3330.00,0.1935
3329.00,0.1934
3328.00,0.1933
3327.00,0.1932
3326.00,0.1932
3325.00,0.1931
3324.00,0.1930
3323.00,0.1929
3322.00,0.1928
3321.00,0.1927
3320.00,0.1926
3319.00,0.1925
3318.00,0.1924
3317.00,0.1923
3316.00,0.1922
3315.00,0.1920
3314.00,0.1919
3313.00,0.1918
3312.00,0.1916
3311.00,0.1915
3310.00,0.1914
3309.00,0.1914
3308.00,0.1913
3307.00,0.1912
3306.00,0.1911
3305.00,0.1909
3304.00,0.1907
3303.00,0.1905
3302.00,0.1903
3301.00,0.1902
3300.00,0.1900
3299.00,0.1898
3298.00,0.1896
3297.00,0.1893
3296.00,0.1891
3295.00,0.1889
3294.00,0.1887
3293.00,0.1885
3292.00,0.1884
3291.00,0.1882
3290.00,0.1880
3289.00,0.1878
3288.00,0.1876
3287.00,0.1873
3286.00,0.1871
3285.00,0.1868
3284.00,0.1866
3283.00,0.1864
3282.00,0.1861
3281.00,0.1858
3280.00,0.1855
3279.00,0.1852
3278.00,0.1848
3277.00,0.1845
3276.00,0.1841
3275.00,0.1838
3274.00,0.1835
3273.00,0.1832
3272.00,0.1829
3271.00,0.1825
3270.00,0.1822
3269.00,0.1818
3268.00,0.1814
3267.00,0.1810
3266.00,0.1806
3265.00,0.1802
3264.00,0.1798
3263.00,0.1794
3262.00,0.1790
3261.00,0.1786
3260.00,0.1782
3259.00,0.1777
3258.00,0.1773
3257.00,0.1768
3256.00,0.1764
3255.00,0.1759
3254.00,0.1755
3253.00,0.1750
3252.00,0.1746
3251.00,0.1741
3250.00,0.1736
3249.00,0.1731
3248.00,0.1726
3247.00,0.1721
3246.00,0.1716
3245.00,0.1711
3244.00,0.1706
3243.00,0.1702
3242.00,0.1696
3241.00,0.1691
3240.00,0.1686
3239.00,0.1680
3238.00,0.1675
3237.00,0.1670
3236.00,0.1665
3235.00,0.1660
3234.00,0.1655
3233.00,0.1649
3232.00,0.1644
3231.00,0.1638
3230.00,0.1632
3229.00,0.1627
3228.00,0.1621
3227.00,0.1616
3226.00,0.1610
3225.00,0.1604
3224.00,0.1598
3223.00,0.1592
3222.00,0.1586
3221.00,0.1580
3220.00,0.1574
3219.00,0.1568
3218.00,0.1563
3217.00,0.1557
3216.00,0.1552
3215.00,0.1546
3214.00,0.1540
3213.00,0.1534
3212.00,0.1527
3211.00,0.1521
3210.00,0.1515
3209.00,0.1508
3208.00,0.1502
3207.00,0.1495
3206.00,0.1488
3205.00,0.1481
3204.00,0.1474
3203.00,0.1467
3202.00,0.1460
3201.00,0.1454
3200.00,0.1447
3199.00,0.1440
3198.00,0.1434
3197.00,0.1428
3196.00,0.1421
3195.00,0.1414
3194.00,0.1407
3193.00,0.1400
3192.00,0.1392
3191.00,0.1385
3190.00,0.1378
3189.00,0.1371
3188.00,0.1364
3187.00,0.1356
3186.00,0.1349
3185.00,0.1342
3184.00,0.1335
3183.00,0.1328
3182.00,0.1321
3181.00,0.1314
3180.00,0.1306
3179.00,0.1299
3178.00,0.1292
3177.00,0.1284
3176.00,0.1277
3175.00,0.1269
3174.00,0.1261
3173.00,0.1253
3172.00,0.1246
3171.00,0.1239
3170.00,0.1232
3169.00,0.1225
3168.00,0.1218
3167.00,0.1211
3166.00,0.1204
3165.00,0.1196
3164.00,0.1189
3163.00,0.1182
3162.00,0.1175
3161.00,0.1168
3160.00,0.1161
3159.00,0.1154
3158.00,0.1146
3157.00,0.1139
3156.00,0.1132
3155.00,0.1125
3154.00,0.1118
3153.00,0.1111
3152.00,0.1103
3151.00,0.1096
3150.00,0.1089
3149.00,0.1083
3148.00,0.1076
3147.00,0.1069
3146.00,0.1062
3145.00,0.1055
3144.00,0.1049
3143.00,0.1042
3142.00,0.1036
3141.00,0.1029
3140.00,0.1023
3139.00,0.1016
3138.00,0.1009
3137.00,0.1003
3136.00,0.0996
3135.00,0.0990
3134.00,0.0983
3133.00,0.0977
3132.00,0.0971
3131.00,0.0965
3130.00,0.0958
3129.00,0.0951
3128.00,0.0945
3127.00,0.0939
3126.00,0.0933
3125.00,0.0928
3124.00,0.0922
3123.00,0.0917
3122.00,0.0911
3121.00,0.0906
3120.00,0.0901
3119.00,0.0895
3118.00,0.0890
3117.00,0.0884
3116.00,0.0878
3115.00,0.0872
3114.00,0.0867
3113.00,0.0862
3112.00,0.0857
3111.00,0.0852
3110.00,0.0847
3109.00,0.0843
3108.00,0.0838
3107.00,0.0833
3106.00,0.0828
3105.00,0.0823
3104.00,0.0818
3103.00,0.0814
3102.00,0.0809
3101.00,0.0805
3100.00,0.0801
3099.00,0.0796
3098.00,0.0792
3097.00,0.0787
3096.00,0.0783
3095.00,0.0779
3094.00,0.0775
3093.00,0.0771
3092.00,0.0767
3091.00,0.0762
3090.00,0.0758
3089.00,0.0754
3088.00,0.0750
3087.00,0.0746
3086.00,0.0742
3085.00,0.0738
3084.00,0.0734
3083.00,0.0730
3082.00,0.0726
3081.00,0.0722
3080.00,0.0718
3079.00,0.0714
3078.00,0.0711
3077.00,0.0707
3076.00,0.0704
3075.00,0.0700
3074.00,0.0697
3073.00,0.0693
3072.00,0.0689
3071.00,0.0684
3070.00,0.0680
3069.00,0.0676
3068.00,0.0672
3067.00,0.0668
3066.00,0.0664
3065.00,0.0661
3064.00,0.0657
3063.00,0.0653
3062.00,0.0649
3061.00,0.0645
3060.00,0.0641
3059.00,0.0637
3058.00,0.0634
3057.00,0.0630
3056.00,0.0626
3055.00,0.0622
3054.00,0.0618
3053.00,0.0614
3052.00,0.0610
3051.00,0.0606
3050.00,0.0602
3049.00,0.0598
3048.00,0.0594
3047.00,0.0590
3046.00,0.0586
3045.00,0.0582
3044.00,0.0578
3043.00,0.0575
3042.00,0.0571
3041.00,0.0567
3040.00,0.0564
3039.00,0.0560
3038.00,0.0557
3037.00,0.0554
3036.00,0.0551
3035.00,0.0547
3034.00,0.0544
3033.00,0.0540
3032.00,0.0537
3031.00,0.0533
3030.00,0.0530
3029.00,0.0527
3028.00,0.0524
3027.00,0.0521
3026.00,0.0518
3025.00,0.0514
3024.00,0.0511
3023.00,0.0508
3022.00,0.0505
3021.00,0.0503
3020.00,0.0500
3019.00,0.0498
3018.00,0.0495
3017.00,0.0492
3016.00,0.0489
3015.00,0.0487
3014.00,0.0484
3013.00,0.0482
3012.00,0.0479
3011.00,0.0477
3010.00,0.0475
3009.00,0.0473
3008.00,0.0471
3007.00,0.0470
3006.00,0.0468
3005.00,0.0466
3004.00,0.0464
3003.00,0.0463
3002.00,0.0461
3001.00,0.0459
3000.00,0.0458
2999.00,0.0457
2998.00,0.0457
2997.00,0.0456
2996.00,0.0456
2995.00,0.0456
2994.00,0.0455
2993.00,0.0455
2992.00,0.0455
2991.00,0.0455
2990.00,0.0455
2989.00,0.0455
2988.00,0.0455
2987.00,0.0455
2986.00,0.0456
2985.00,0.0457
2984.00,0.0458
2983.00,0.0458
2982.00,0.0460
2981.00,0.0461
2980.00,0.0462
2979.00,0.0464
2978.00,0.0465
2977.00,0.0466
2976.00,0.0468
2975.00,0.0470
2974.00,0.0472
2973.00,0.0474
2972.00,0.0475
2971.00,0.0477
2970.00,0.0478
2969.00,0.0480
2968.00,0.0482
2967.00,0.0483
2966.00,0.0484
2965.00,0.0485
2964.00,0.0485
2963.00,0.0485
2962.00,0.0486
2961.00,0.0487
2960.00,0.0487
2959.00,0.0487
2958.00,0.0486
2957.00,0.0485
2956.00,0.0484
2955.00,0.0482
2954.00,0.0481
2953.00,0.0480
2952.00,0.0478
2951.00,0.0477
2950.00,0.0476
2949.00,0.0475
2948.00,0.0474
2947.00,0.0473
2946.00,0.0472
2945.00,0.0472
2944.00,0.0472
2943.00,0.0472
2942.00,0.0473
2941.00,0.0473
2940.00,0.0473
2939.00,0.0474
2938.00,0.0474
2937.00,0.0474
2936.00,0.0475
2935.00,0.0475
2934.00,0.0476
2933.00,0.0476
2932.00,0.0475
2931.00,0.0474
2930.00,0.0474
2929.00,0.0473
2928.00,0.0473
2927.00,0.0474
2926.00,0.0474
2925.00,0.0473
2924.00,0.0472
2923.00,0.0471
2922.00,0.0469
2921.00,0.0466
2920.00,0.0464
2919.00,0.0461
2918.00,0.0458
2917.00,0.0455
2916.00,0.0451
2915.00,0.0447
2914.00,0.0443
2913.00,0.0439
2912.00,0.0436
2911.00,0.0432
2910.00,0.0429
2909.00,0.0425
2908.00,0.0422
2907.00,0.0419
2906.00,0.0417
2905.00,0.0415
2904.00,0.0412
2903.00,0.0410
2902.00,0.0407
2901.00,0.0404
2900.00,0.0401
2899.00,0.0398
2898.00,0.0395
2897.00,0.0392
2896.00,0.0390
2895.00,0.0387
2894.00,0.0385
2893.00,0.0382
2892.00,0.0380
2891.00,0.0378
2890.00,0.0375
2889.00,0.0373
2888.00,0.0371
2887.00,0.0369
2886.00,0.0366
2885.00,0.0364
2884.00,0.0362
2883.00,0.0360
2882.00,0.0359
2881.00,0.0357
2880.00,0.0356
2879.00,0.0354
2878.00,0.0353
2877.00,0.0351
2876.00,0.0349
2875.00,0.0347
2874.00,0.0345
2873.00,0.0343
2872.00,0.0341
2871.00,0.0338
2870.00,0.0335
2869.00,0.0333
2868.00,0.0330
2867.00,0.0327
2866.00,0.0325
2865.00,0.0322
2864.00,0.0320
2863.00,0.0318
2862.00,0.0317
2861.00,0.0315
2860.00,0.0314
2859.00,0.0314
2858.00,0.0313
2857.00,0.0312
2856.00,0.0312
2855.00,0.0311
2854.00,0.0310
2853.00,0.0309
2852.00,0.0307
2851.00,0.0305
2850.00,0.0302
2849.00,0.0298
2848.00,0.0294
2847.00,0.0289
2846.00,0.0285
2845.00,0.0281
2844.00,0.0277
2843.00,0.0273
2842.00,0.0270
2841.00,0.0267
2840.00,0.0264
2839.00,0.0261
2838.00,0.0259
2837.00,0.0257
2836.00,0.0255
2835.00,0.0254
2834.00,0.0252
2833.00,0.0250
2832.00,0.0249
2831.00,0.0247
2830.00,0.0245
2829.00,0.0244
2828.00,0.0242
2827.00,0.0241
2826.00,0.0239
2825.00,0.0238
2824.00,0.0237
2823.00,0.0235
2822.00,0.0234
2821.00,0.0233
2820.00,0.0231
2819.00,0.0230
2818.00,0.0229
2817.00,0.0228
2816.00,0.0227
2815.00,0.0226
2814.00,0.0225
2813.00,0.0223
2812.00,0.0222
2811.00,0.0221
2810.00,0.0220
2809.00,0.0219
2808.00,0.0218
2807.00,0.0216
2806.00,0.0215
2805.00,0.0214
2804.00,0.0213
2803.00,0.0212
2802.00,0.0212
2801.00,0.0211
2800.00,0.0210
2799.00,0.0209
2798.00,0.0208
2797.00,0.0207
2796.00,0.0206
2795.00,0.0205
2794.00,0.0204
2793.00,0.0203
2792.00,0.0201
2791.00,0.0200
2790.00,0.0199
2789.00,0.0198
2788.00,0.0198
2787.00,0.0197
2786.00,0.0197
2785.00,0.0196
2784.00,0.0196
2783.00,0.0195
2782.00,0.0194
2781.00,0.0193
2780.00,0.0192
2779.00,0.0191
2778.00,0.0190
2777.00,0.0190
2776.00,0.0189
2775.00,0.0188
2774.00,0.0187
2773.00,0.0186
2772.00,0.0186
2771.00,0.0185
2770.00,0.0184
2769.00,0.0183
2768.00,0.0183
2767.00,0.0182
2766.00,0.0182
2765.00,0.0181
2764.00,0.0180
2763.00,0.0180
2762.00,0.0179
2761.00,0.0178
2760.00,0.0178
2759.00,0.0177
2758.00,0.0177
2757.00,0.0176
2756.00,0.0175
2755.00,0.0175
2754.00,0.0174
2753.00,0.0174
2752.00,0.0173
2751.00,0.0172
2750.00,0.0172
2749.00,0.0171
2748.00,0.0171
2747.00,0.0171
2746.00,0.0170
2745.00,0.0170
2744.00,0.0169
2743.00,0.0168
2742.00,0.0168
2741.00,0.0168
2740.00,0.0167
2739.00,0.0167
2738.00,0.0167
2737.00,0.0166
2736.00,0.0165
2735.00,0.0165
2734.00,0.0164
2733.00,0.0163
2732.00,0.0163
2731.00,0.0162
2730.00,0.0161
2729.00,0.0161
2728.00,0.0160
2727.00,0.0160
2726.00,0.0159
2725.00,0.0159
2724.00,0.0158
2723.00,0.0158
2722.00,0.0158
2721.00,0.0157
2720.00,0.0156
2719.00,0.0156
2718.00,0.0155
2717.00,0.0155
2716.00,0.0155
2715.00,0.0154
2714.00,0.0154
2713.00,0.0153
2712.00,0.0152
2711.00,0.0152
2710.00,0.0152
2709.00,0.0151
2708.00,0.0151
2707.00,0.0151
2706.00,0.0150
2705.00,0.0150
2704.00,0.0150
2703.00,0.0149
2702.00,0.0149
2701.00,0.0149
2700.00,0.0148
2699.00,0.0147
2698.00,0.0147
2697.00,0.0146
2696.00,0.0146
2695.00,0.0146
2694.00,0.0146
2693.00,0.0145
2692.00,0.0145
2691.00,0.0144
2690.00,0.0144
2689.00,0.0143
2688.00,0.0143
2687.00,0.0143
2686.00,0.0143
2685.00,0.0143
2684.00,0.0143
2683.00,0.0143
2682.00,0.0142
2681.00,0.0142
2680.00,0.0141
2679.00,0.0141
2678.00,0.0140
2677.00,0.0139
2676.00,0.0139
2675.00,0.0139
2674.00,0.0138
2673.00,0.0138
2672.00,0.0138
2671.00,0.0138
2670.00,0.0137
2669.00,0.0137
2668.00,0.0137
2667.00,0.0137
2666.00,0.0137
2665.00,0.0137
2664.00,0.0138
2663.00,0.0138
2662.00,0.0138
2661.00,0.0138
2660.00,0.0138
2659.00,0.0138
2658.00,0.0138
2657.00,0.0138
2656.00,0.0138
2655.00,0.0137
2654.00,0.0137
2653.00,0.0137
2652.00,0.0136
2651.00,0.0136
2650.00,0.0136
2649.00,0.0135
2648.00,0.0135
2647.00,0.0135
2646.00,0.0134
2645.00,0.0134
2644.00,0.0133
2643.00,0.0133
2642.00,0.0132
2641.00,0.0132
2640.00,0.0131
2639.00,0.0130
2638.00,0.0130
2637.00,0.0129
2636.00,0.0129
2635.00,0.0128
2634.00,0.0127
2633.00,0.0127
2632.00,0.0127
2631.00,0.0126
2630.00,0.0126
2629.00,0.0125
2628.00,0.0125
2627.00,0.0125
2626.00,0.0124
2625.00,0.0123
2624.00,0.0122
2623.00,0.0122
2622.00,0.0121
2621.00,0.0121
2620.00,0.0121
2619.00,0.0120
2618.00,0.0120
2617.00,0.0120
2616.00,0.0120
2615.00,0.0120
2614.00,0.0119
2613.00,0.0118
2612.00,0.0118
2611.00,0.0117
2610.00,0.0117
2609.00,0.0116
2608.00,0.0116
2607.00,0.0115
2606.00,0.0115
2605.00,0.0114
2604.00,0.0114
2603.00,0.0113
2602.00,0.0113
2601.00,0.0112
2600.00,0.0112
2599.00,0.0112
2598.00,0.0112
2597.00,0.0113
2596.00,0.0113
2595.00,0.0112
2594.00,0.0111
2593.00,0.0110
2592.00,0.0109
2591.00,0.0109
2590.00,0.0109
2589.00,0.0109
2588.00,0.0109
2587.00,0.0109
2586.00,0.0109
2585.00,0.0109
2584.00,0.0108
2583.00,0.0108
2582.00,0.0108
2581.00,0.0107
2580.00,0.0107
2579.00,0.0107
2578.00,0.0106
2577.00,0.0106
2576.00,0.0105
2575.00,0.0105
2574.00,0.0104
2573.00,0.0104
2572.00,0.0104
2571.00,0.0104
2570.00,0.0104
2569.00,0.0104
2568.00,0.0103
2567.00,0.0103
2566.00,0.0102
2565.00,0.0102
2564.00,0.0102
2563.00,0.0102
2562.00,0.0102
2561.00,0.0103
2560.00,0.0102
2559.00,0.0102
2558.00,0.0102
2557.00,0.0101
2556.00,0.0101
2555.00,0.0100
2554.00,0.0100
2553.00,0.0100
2552.00,0.0100
2551.00,0.0100
2550.00,0.0100
2549.00,0.0100
2548.00,0.0100
2547.00,0.0100
2546.00,0.0100
2545.00,0.0099
2544.00,0.0099
2543.00,0.0098
2542.00,0.0098
2541.00,0.0098
2540.00,0.0098
2539.00,0.0098
2538.00,0.0098
2537.00,0.0098
2536.00,0.0098
2535.00,0.0098
2534.00,0.0098
2533.00,0.0098
2532.00,0.0097
2531.00,0.0097
2530.00,0.0096
2529.00,0.0096
2528.00,0.0096
2527.00,0.0096
2526.00,0.0096
2525.00,0.0096
2524.00,0.0096
2523.00,0.0095
2522.00,0.0095
2521.00,0.0094
2520.00,0.0095
2519.00,0.0095
2518.00,0.0096
2517.00,0.0096
2516.00,0.0096
2515.00,0.0096
2514.00,0.0096
2513.00,0.0096
2512.00,0.0095
2511.00,0.0095
2510.00,0.0094
2509.00,0.0094
2508.00,0.0095
2507.00,0.0095
2506.00,0.0095
2505.00,0.0095
2504.00,0.0094
2503.00,0.0094
2502.00,0.0094
2501.00,0.0094
2500.00,0.0094
2499.00,0.0094
2498.00,0.0094
2497.00,0.0094
2496.00,0.0094
2495.00,0.0094
2494.00,0.0094
2493.00,0.0094
2492.00,0.0094
2491.00,0.0094
2490.00,0.0094
2489.00,0.0094
2488.00,0.0094
2487.00,0.0094
2486.00,0.0093
2485.00,0.0092
2484.00,0.0092
2483.00,0.0092
2482.00,0.0093
2481.00,0.0093
2480.00,0.0092
2479.00,0.0092
2478.00,0.0092
2477.00,0.0092
2476.00,0.0092
2475.00,0.0092
2474.00,0.0092
2473.00,0.0092
2472.00,0.0092
2471.00,0.0092
2470.00,0.0092
2469.00,0.0091
2468.00,0.0090
2467.00,0.0090
2466.00,0.0090
2465.00,0.0090
2464.00,0.0090
2463.00,0.0091
2462.00,0.0091
2461.00,0.0091
2460.00,0.0092
2459.00,0.0092
2458.00,0.0092
2457.00,0.0092
2456.00,0.0092
2455.00,0.0093
2454.00,0.0093
2453.00,0.0094
2452.00,0.0094
2451.00,0.0094
2450.00,0.0093
2449.00,0.0093
2448.00,0.0092
2447.00,0.0092
2446.00,0.0091
2445.00,0.0091
2444.00,0.0091
2443.00,0.0091
2442.00,0.0091
2441.00,0.0091
2440.00,0.0091
2439.00,0.0091
2438.00,0.0091
2437.00,0.0091
2436.00,0.0091
2435.00,0.0091
2434.00,0.0091
2433.00,0.0091
2432.00,0.0091
2431.00,0.0090
2430.00,0.0090
2429.00,0.0089
2428.00,0.0089
2427.00,0.0089
2426.00,0.0089
2425.00,0.0089
2424.00,0.0088
2423.00,0.0088
2422.00,0.0088
2421.00,0.0089
2420.00,0.0089
2419.00,0.0089
2418.00,0.0089
2417.00,0.0089
2416.00,0.0089
2415.00,0.0089
2414.00,0.0089
2413.00,0.0089
2412.00,0.0089
2411.00,0.0089
2410.00,0.0089
2409.00,0.0089
2408.00,0.0089
2407.00,0.0088
2406.00,0.0087
2405.00,0.0087
2404.00,0.0087
2403.00,0.0087
2402.00,0.0088
2401.00,0.0088
2400.00,0.0088
2399.00,0.0088
2398.00,0.0088
2397.00,0.0088
2396.00,0.0088
2395.00,0.0089
2394.00,0.0089
2393.00,0.0089
2392.00,0.0089
2391.00,0.0089
2390.00,0.0089
2389.00,0.0089
2388.00,0.0089
2387.00,0.0090
2386.00,0.0090
2385.00,0.0090
2384.00,0.0090
2383.00,0.0089
2382.00,0.0089
2381.00,0.0088
2380.00,0.0088
2379.00,0.0088
2378.00,0.0088
2377.00,0.0088
2376.00,0.0089
2375.00,0.0090
2374.00,0.0091
2373.00,0.0092
2372.00,0.0093
2371.00,0.0093
2370.00,0.0092
2369.00,0.0092
2368.00,0.0092
2367.00,0.0092
2366.00,0.0092
2365.00,0.0093
2364.00,0.0094
2363.00,0.0094
2362.00,0.0095
2361.00,0.0096
2360.00,0.0097
2359.00,0.0098
2358.00,0.0099
2357.00,0.0099
2356.00,0.0099
2355.00,0.0099
2354.00,0.0098
2353.00,0.0098
2352.00,0.0098
2351.00,0.0099
2350.00,0.0099
2349.00,0.0100
2348.00,0.0100
2347.00,0.0100
2346.00,0.0100
2345.00,0.0101
2344.00,0.0102
2343.00,0.0104
2342.00,0.0104
2341.00,0.0105
2340.00,0.0106
2339.00,0.0106
2338.00,0.0106
2337.00,0.0106
2336.00,0.0106
2335.00,0.0106
2334.00,0.0106
2333.00,0.0105
2332.00,0.0105
2331.00,0.0105
2330.00,0.0106
2329.00,0.0107
2328.00,0.0109
2327.00,0.0113
2326.00,0.0118
2325.00,0.0123
2324.00,0.0126
2323.00,0.0126
2322.00,0.0124
2321.00,0.0122
2320.00,0.0120
2319.00,0.0118
2318.00,0.0117
2317.00,0.0116
2316.00,0.0115
2315.00,0.0115
2314.00,0.0114
2313.00,0.0115
2312.00,0.0115
2311.00,0.0115
2310.00,0.0115
2309.00,0.0115
2308.00,0.0115
2307.00,0.0114
2306.00,0.0114
2305.00,0.0113
2304.00,0.0112
2303.00,0.0112
2302.00,0.0112
2301.00,0.0113
2300.00,0.0114
2299.00,0.0114
2298.00,0.0115
2297.00,0.0115
2296.00,0.0115
2295.00,0.0116
2294.00,0.0117
2293.00,0.0118
2292.00,0.0119
2291.00,0.0120
2290.00,0.0121
2289.00,0.0121
2288.00,0.0122
2287.00,0.0123
2286.00,0.0124
2285.00,0.0125
2284.00,0.0125
2283.00,0.0124
2282.00,0.0122
2281.00,0.0121
2280.00,0.0120
2279.00,0.0119
2278.00,0.0117
2277.00,0.0116
2276.00,0.0115
2275.00,0.0115
2274.00,0.0115
2273.00,0.0116
2272.00,0.0117
2271.00,0.0117
2270.00,0.0117
2269.00,0.0116
2268.00,0.0116
2267.00,0.0116
2266.00,0.0115
2265.00,0.0113
2264.00,0.0113
2263.00,0.0113
2262.00,0.0113
2261.00,0.0114
2260.00,0.0115
2259.00,0.0115
2258.00,0.0115
2257.00,0.0114
2256.00,0.0114
2255.00,0.0112
2254.00,0.0111
2253.00,0.0111
2252.00,0.0111
2251.00,0.0111
2250.00,0.0110
2249.00,0.0109
2248.00,0.0109
2247.00,0.0108
2246.00,0.0107
2245.00,0.0106
2244.00,0.0107
2243.00,0.0109
2242.00,0.0111
2241.00,0.0113
2240.00,0.0113
2239.00,0.0112
2238.00,0.0111
2237.00,0.0110
2236.00,0.0110
2235.00,0.0110
2234.00,0.0110
2233.00,0.0109
2232.00,0.0108
2231.00,0.0107
2230.00,0.0107
2229.00,0.0107
2228.00,0.0107
2227.00,0.0107
2226.00,0.0107
2225.00,0.0108
2224.00,0.0109
2223.00,0.0110
2222.00,0.0110
2221.00,0.0110
2220.00,0.0109
2219.00,0.0107
2218.00,0.0106
2217.00,0.0106
2216.00,0.0106
2215.00,0.0106
2214.00,0.0106
2213.00,0.0106
2212.00,0.0107
2211.00,0.0106
2210.00,0.0106
2209.00,0.0106
2208.00,0.0107
2207.00,0.0107
2206.00,0.0108
2205.00,0.0110
2204.00,0.0112
2203.00,0.0112
2202.00,0.0111
2201.00,0.0109
2200.00,0.0108
2199.00,0.0107
2198.00,0.0107
2197.00,0.0108
2196.00,0.0108
2195.00,0.0106
2194.00,0.0104
2193.00,0.0103
2192.00,0.0104
2191.00,0.0104
2190.00,0.0105
2189.00,0.0106
2188.00,0.0107
2187.00,0.0109
2186.00,0.0110
2185.00,0.0110
2184.00,0.0107
2183.00,0.0103
2182.00,0.0099
2181.00,0.0097
2180.00,0.0099
2179.00,0.0101
2178.00,0.0102
2177.00,0.0102
2176.00,0.0101
2175.00,0.0100
2174.00,0.0099
2173.00,0.0099
2172.00,0.0100
2171.00,0.0102
2170.00,0.0104
2169.00,0.0106
2168.00,0.0108
2167.00,0.0109
2166.00,0.0109
2165.00,0.0110
2164.00,0.0113
2163.00,0.0116
2162.00,0.0114
2161.00,0.0107
2160.00,0.0094
2159.00,0.0078
2158.00,0.0064
2157.00,0.0056
2156.00,0.0055
2155.00,0.0058
2154.00,0.0063
2153.00,0.0069
2152.00,0.0074
2151.00,0.0078
2150.00,0.0080
2149.00,0.0082
2148.00,0.0083
2147.00,0.0083
2146.00,0.0083
2145.00,0.0083
2144.00,0.0084
2143.00,0.0084
2142.00,0.0083
2141.00,0.0084
2140.00,0.0086
2139.00,0.0087
2138.00,0.0088
2137.00,0.0088
2136.00,0.0088
2135.00,0.0087
2134.00,0.0086
2133.00,0.0085
2132.00,0.0085
2131.00,0.0086
2130.00,0.0088
2129.00,0.0091
2128.00,0.0095
2127.00,0.0099
2126.00,0.0102
2125.00,0.0104
2124.00,0.0104
2123.00,0.0105
2122.00,0.0106
2121.00,0.0108
2120.00,0.0111
2119.00,0.0112
2118.00,0.0113
2117.00,0.0114
2116.00,0.0116
2115.00,0.0117
2114.00,0.0118
2113.00,0.0120
2112.00,0.0121
2111.00,0.0122
2110.00,0.0123
2109.00,0.0122
2108.00,0.0122
2107.00,0.0122
2106.00,0.0122
2105.00,0.0122
2104.00,0.0122
2103.00,0.0122
2102.00,0.0122
2101.00,0.0122
2100.00,0.0122
2099.00,0.0121
2098.00,0.0119
2097.00,0.0116
2096.00,0.0114
2095.00,0.0112
2094.00,0.0110
2093.00,0.0110
2092.00,0.0112
2091.00,0.0113
2090.00,0.0114
2089.00,0.0115
2088.00,0.0116
2087.00,0.0118
2086.00,0.0118
2085.00,0.0118
2084.00,0.0118
2083.00,0.0117
2082.00,0.0116
2081.00,0.0116
2080.00,0.0117
2079.00,0.0117
2078.00,0.0117
2077.00,0.0115
2076.00,0.0113
2075.00,0.0112
2074.00,0.0110
2073.00,0.0110
2072.00,0.0111
2071.00,0.0110
2070.00,0.0110
2069.00,0.0109
2068.00,0.0109
2067.00,0.0109
2066.00,0.0106
2065.00,0.0104
2064.00,0.0102
2063.00,0.0101
2062.00,0.0100
2061.00,0.0100
2060.00,0.0100
2059.00,0.0099
2058.00,0.0098
2057.00,0.0098
2056.00,0.0098
2055.00,0.0098
2054.00,0.0100
2053.00,0.0104
2052.00,0.0109
2051.00,0.0112
2050.00,0.0110
2049.00,0.0105
2048.00,0.0099
2047.00,0.0095
2046.00,0.0092
2045.00,0.0090
2044.00,0.0090
2043.00,0.0090
2042.00,0.0089
2041.00,0.0087
2040.00,0.0085
2039.00,0.0084
2038.00,0.0084
2037.00,0.0084
2036.00,0.0083
2035.00,0.0081
2034.00,0.0077
2033.00,0.0074
2032.00,0.0075
2031.00,0.0076
2030.00,0.0075
2029.00,0.0073
2028.00,0.0071
2027.00,0.0070
2026.00,0.0068
2025.00,0.0067
2024.00,0.0067
2023.00,0.0069
2022.00,0.0071
2021.00,0.0072
2020.00,0.0073
2019.00,0.0071
2018.00,0.0067
2017.00,0.0065
2016.00,0.0064
2015.00,0.0064
2014.00,0.0065
2013.00,0.0067
2012.00,0.0069
2011.00,0.0071
2010.00,0.0072
2009.00,0.0072
2008.00,0.0071
2007.00,0.0069
2006.00,0.0065
2005.00,0.0062
2004.00,0.0061
2003.00,0.0061
2002.00,0.0060
2001.00,0.0062
2000.00,0.0066
1999.00,0.0070
1998.00,0.0073
1997.00,0.0075
1996.00,0.0077
1995.00,0.0079
1994.00,0.0079
1993.00,0.0080
1992.00,0.0080
1991.00,0.0081
1990.00,0.0081
1989.00,0.0083
1988.00,0.0084
1987.00,0.0085
1986.00,0.0085
1985.00,0.0085
1984.00,0.0086
1983.00,0.0087
1982.00,0.0086
1981.00,0.0085
1980.00,0.0084
1979.00,0.0080
1978.00,0.0074
1977.00,0.0068
1976.00,0.0064
1975.00,0.0061
1974.00,0.0059
1973.00,0.0058
1972.00,0.0059
1971.00,0.0059
1970.00,0.0057
1969.00,0.0055
1968.00,0.0054
1967.00,0.0055
1966.00,0.0056
1965.00,0.0058
1964.00,0.0060
1963.00,0.0061
1962.00,0.0062
1961.00,0.0061
1960.00,0.0059
1959.00,0.0057
1958.00,0.0057
1957.00,0.0059
1956.00,0.0062
1955.00,0.0064
1954.00,0.0064
1953.00,0.0063
1952.00,0.0063
1951.00,0.0062
1950.00,0.0060
1949.00,0.0060
1948.00,0.0060
1947.00,0.0062
1946.00,0.0064
1945.00,0.0067
1944.00,0.0069
1943.00,0.0069
1942.00,0.0068
1941.00,0.0066
1940.00,0.0066
1939.00,0.0065
1938.00,0.0065
1937.00,0.0066
1936.00,0.0067
1935.00,0.0068
1934.00,0.0067
1933.00,0.0066
1932.00,0.0066
1931.00,0.0065
1930.00,0.0065
1929.00,0.0065
1928.00,0.0066
1927.00,0.0066
1926.00,0.0065
1925.00,0.0065
1924.00,0.0065
1923.00,0.0066
1922.00,0.0066
1921.00,0.0067
1920.00,0.0069
1919.00,0.0071
1918.00,0.0070
1917.00,0.0069
1916.00,0.0068
1915.00,0.0067
1914.00,0.0067
1913.00,0.0067
1912.00,0.0068
1911.00,0.0069
1910.00,0.0069
1909.00,0.0068
1908.00,0.0068
1907.00,0.0068
1906.00,0.0068
1905.00,0.0068
1904.00,0.0069
1903.00,0.0068
1902.00,0.0068
1901.00,0.0067
1900.00,0.0066
1899.00,0.0065
1898.00,0.0065
1897.00,0.0066
1896.00,0.0067
1895.00,0.0066
1894.00,0.0066
1893.00,0.0066
1892.00,0.0066
1891.00,0.0066
1890.00,0.0066
1889.00,0.0065
1888.00,0.0064
1887.00,0.0063
1886.00,0.0063
1885.00,0.0063
1884.00,0.0063
1883.00,0.0063
1882.00,0.0062
1881.00,0.0062
1880.00,0.0061
1879.00,0.0061
1878.00,0.0060
1877.00,0.0060
1876.00,0.0060
1875.00,0.0060
1874.00,0.0060
1873.00,0.0060
1872.00,0.0062
1871.00,0.0063
1870.00,0.0063
1869.00,0.0062
1868.00,0.0060
1867.00,0.0059
1866.00,0.0058
1865.00,0.0058
1864.00,0.0058
1863.00,0.0058
1862.00,0.0058
1861.00,0.0057
1860.00,0.0057
1859.00,0.0058
1858.00,0.0058
1857.00,0.0058
1856.00,0.0059
1855.00,0.0058
1854.00,0.0058
1853.00,0.0057
1852.00,0.0057
1851.00,0.0057
1850.00,0.0057
1849.00,0.0058
1848.00,0.0059
1847.00,0.0060
1846.00,0.0060
1845.00,0.0060
1844.00,0.0058
1843.00,0.0057
1842.00,0.0056
1841.00,0.0057
1840.00,0.0058
1839.00,0.0059
1838.00,0.0058
1837.00,0.0058
1836.00,0.0058
1835.00,0.0058
1834.00,0.0058
1833.00,0.0060
1832.00,0.0062
1831.00,0.0064
1830.00,0.0063
1829.00,0.0062
1828.00,0.0061
1827.00,0.0061
1826.00,0.0061
1825.00,0.0060
1824.00,0.0060
1823.00,0.0060
1822.00,0.0060
1821.00,0.0060
1820.00,0.0059
1819.00,0.0057
1818.00,0.0056
1817.00,0.0055
1816.00,0.0055
1815.00,0.0056
1814.00,0.0058
1813.00,0.0059
1812.00,0.0061
1811.00,0.0061
1810.00,0.0060
1809.00,0.0059
1808.00,0.0058
1807.00,0.0058
1806.00,0.0058
1805.00,0.0058
1804.00,0.0059
1803.00,0.0059
1802.00,0.0060
1801.00,0.0060
1800.00,0.0061
1799.00,0.0060
1798.00,0.0060
1797.00,0.0060
1796.00,0.0061
1795.00,0.0063
1794.00,0.0064
1793.00,0.0063
1792.00,0.0061
1791.00,0.0059
1790.00,0.0057
1789.00,0.0057
1788.00,0.0057
1787.00,0.0058
1786.00,0.0057
1785.00,0.0056
1784.00,0.0057
1783.00,0.0058
1782.00,0.0059
1781.00,0.0059
1780.00,0.0059
1779.00,0.0057
1778.00,0.0057
1777.00,0.0057
1776.00,0.0058
1775.00,0.0061
1774.00,0.0063
1773.00,0.0064
1772.00,0.0064
1771.00,0.0061
1770.00,0.0058
1769.00,0.0056
1768.00,0.0056
1767.00,0.0055
1766.00,0.0056
1765.00,0.0058
1764.00,0.0060
1763.00,0.0062
1762.00,0.0061
1761.00,0.0061
1760.00,0.0061
1759.00,0.0062
1758.00,0.0063
1757.00,0.0063
1756.00,0.0064
1755.00,0.0066
1754.00,0.0068
1753.00,0.0071
1752.00,0.0074
1751.00,0.0077
1750.00,0.0081
1749.00,0.0086
1748.00,0.0090
1747.00,0.0092
1746.00,0.0093
1745.00,0.0095
1744.00,0.0098
1743.00,0.0101
1742.00,0.0105
1741.00,0.0108
1740.00,0.0110
1739.00,0.0110
1738.00,0.0111
1737.00,0.0112
1736.00,0.0115
1735.00,0.0117
1734.00,0.0117
1733.00,0.0118
1732.00,0.0122
1731.00,0.0126
1730.00,0.0129
1729.00,0.0130
1728.00,0.0132
1727.00,0.0135
1726.00,0.0137
1725.00,0.0140
1724.00,0.0144
1723.00,0.0148
1722.00,0.0152
1721.00,0.0156
1720.00,0.0161
1719.00,0.0166
1718.00,0.0169
1717.00,0.0173
1716.00,0.0179
1715.00,0.0184
1714.00,0.0189
1713.00,0.0193
1712.00,0.0199
1711.00,0.0205
1710.00,0.0211
1709.00,0.0218
1708.00,0.0227
1707.00,0.0237
1706.00,0.0247
1705.00,0.0256
1704.00,0.0264
1703.00,0.0272
1702.00,0.0280
1701.00,0.0294
1700.00,0.0311
1699.00,0.0328
1698.00,0.0341
1697.00,0.0355
1696.00,0.0372
1695.00,0.0392
1694.00,0.0411
1693.00,0.0428
1692.00,0.0445
1691.00,0.0462
1690.00,0.0481
1689.00,0.0501
1688.00,0.0519
1687.00,0.0535
1686.00,0.0552
1685.00,0.0579
1684.00,0.0614
1683.00,0.0647
1682.00,0.0669
1681.00,0.0686
1680.00,0.0702
1679.00,0.0719
1678.00,0.0736
1677.00,0.0754
1676.00,0.0778
1675.00,0.0806
1674.00,0.0833
1673.00,0.0855
1672.00,0.0875
1671.00,0.0895
1670.00,0.0921
1669.00,0.0950
1668.00,0.0979
1667.00,0.1001
1666.00,0.1019
1665.00,0.1035
1664.00,0.1057
1663.00,0.1085
1662.00,0.1115
1661.00,0.1143
1660.00,0.1167
1659.00,0.1186
1658.00,0.1203
1657.00,0.1214
1656.00,0.1221
1655.00,0.1227
1654.00,0.1248
1653.00,0.1294
1652.00,0.1341
1651.00,0.1367
1650.00,0.1373
1649.00,0.1371
1648.00,0.1372
1647.00,0.1385
1646.00,0.1403
1645.00,0.1417
1644.00,0.1424
1643.00,0.1425
1642.00,0.1423
1641.00,0.1422
1640.00,0.1421
1639.00,0.1420
1638.00,0.1416
1637.00,0.1414
1636.00,0.1419
1635.00,0.1429
1634.00,0.1432
1633.00,0.1425
1632.00,0.1411
1631.00,0.1394
1630.00,0.1377
1629.00,0.1361
1628.00,0.1347
1627.00,0.1332
1626.00,0.1316
1625.00,0.1297
1624.00,0.1276
1623.00,0.1256
1622.00,0.1235
1621.00,0.1213
1620.00,0.1188
1619.00,0.1161
1618.00,0.1131
1617.00,0.1104
1616.00,0.1081
1615.00,0.1060
1614.00,0.1037
1613.00,0.1011
1612.00,0.0982
1611.00,0.0954
1610.00,0.0928
1609.00,0.0903
1608.00,0.0878
1607.00,0.0855
1606.00,0.0832
1605.00,0.0810
1604.00,0.0788
1603.00,0.0766
1602.00,0.0746
1601.00,0.0726
1600.00,0.0706
1599.00,0.0687
1598.00,0.0669
1597.00,0.0651
1596.00,0.0635
1595.00,0.0619
1594.00,0.0604
1593.00,0.0590
1592.00,0.0575
1591.00,0.0561
1590.00,0.0549
1589.00,0.0537
1588.00,0.0526
1587.00,0.0516
1586.00,0.0506
1585.00,0.0497
1584.00,0.0489
1583.00,0.0482
1582.00,0.0476
1581.00,0.0471
1580.00,0.0466
1579.00,0.0460
1578.00,0.0454
1577.00,0.0450
1576.00,0.0448
1575.00,0.0449
1574.00,0.0450
1573.00,0.0450
1572.00,0.0448
1571.00,0.0447
1570.00,0.0448
1569.00,0.0450
1568.00,0.0452
1567.00,0.0453
1566.00,0.0455
1565.00,0.0457
1564.00,0.0459
1563.00,0.0460
1562.00,0.0459
1561.00,0.0460
1560.00,0.0468
1559.00,0.0485
1558.00,0.0503
1557.00,0.0512
1556.00,0.0514
1555.00,0.0515
1554.00,0.0517
1553.00,0.0520
1552.00,0.0523
1551.00,0.0525
1550.00,0.0527
1549.00,0.0530
1548.00,0.0530
1547.00,0.0529
1546.00,0.0527
1545.00,0.0526
1544.00,0.0526
1543.00,0.0526
1542.00,0.0525
1541.00,0.0521
1540.00,0.0515
1539.00,0.0507
1538.00,0.0499
1537.00,0.0493
1536.00,0.0485
1535.00,0.0476
1534.00,0.0467
1533.00,0.0457
1532.00,0.0448
1531.00,0.0440
1530.00,0.0431
1529.00,0.0421
1528.00,0.0411
1527.00,0.0402
1526.00,0.0394
1525.00,0.0386
1524.00,0.0378
1523.00,0.0369
1522.00,0.0359
1521.00,0.0351
1520.00,0.0346
1519.00,0.0342
1518.00,0.0336
1517.00,0.0326
1516.00,0.0314
1515.00,0.0302
1514.00,0.0290
1513.00,0.0278
1512.00,0.0265
1511.00,0.0254
1510.00,0.0245
1509.00,0.0235
1508.00,0.0226
1507.00,0.0216
1506.00,0.0203
1505.00,0.0192
1504.00,0.0183
1503.00,0.0175
1502.00,0.0168
1501.00,0.0160
1500.00,0.0153
1499.00,0.0146
1498.00,0.0138
1497.00,0.0130
1496.00,0.0123
1495.00,0.0118
1494.00,0.0115
1493.00,0.0112
1492.00,0.0110
1491.00,0.0107
1490.00,0.0105
1489.00,0.0103
1488.00,0.0101
1487.00,0.0099
1486.00,0.0097
1485.00,0.0095
1484.00,0.0095
1483.00,0.0097
1482.00,0.0099
1481.00,0.0101
1480.00,0.0105
1479.00,0.0108
1478.00,0.0112
1477.00,0.0118
1476.00,0.0123
1475.00,0.0130
1474.00,0.0137
1473.00,0.0145
1472.00,0.0154
1471.00,0.0161
1470.00,0.0166
1469.00,0.0170
1468.00,0.0172
1467.00,0.0175
1466.00,0.0178
1465.00,0.0182
1464.00,0.0186
1463.00,0.0189
1462.00,0.0192
1461.00,0.0195
1460.00,0.0197
1459.00,0.0199
1458.00,0.0202
1457.00,0.0207
1456.00,0.0213
1455.00,0.0218
1454.00,0.0221
1453.00,0.0221
1452.00,0.0219
1451.00,0.0218
1450.00,0.0218
1449.00,0.0217
1448.00,0.0218
1447.00,0.0218
1446.00,0.0218
1445.00,0.0217
1444.00,0.0217
1443.00,0.0216
1442.00,0.0216
1441.00,0.0217
1440.00,0.0217
1439.00,0.0216
1438.00,0.0216
1437.00,0.0218
1436.00,0.0222
1435.00,0.0226
1434.00,0.0228
1433.00,0.0230
1432.00,0.0231
1431.00,0.0233
1430.00,0.0236
1429.00,0.0239
1428.00,0.0242
1427.00,0.0244
1426.00,0.0246
1425.00,0.0249
1424.00,0.0252
1423.00,0.0255
1422.00,0.0256
1421.00,0.0255
1420.00,0.0256
1419.00,0.0259
1418.00,0.0263
1417.00,0.0267
1416.00,0.0268
1415.00,0.0267
1414.00,0.0265
1413.00,0.0263
1412.00,0.0260
1411.00,0.0259
1410.00,0.0257
1409.00,0.0254
1408.00,0.0252
1407.00,0.0248
1406.00,0.0245
1405.00,0.0242
1404.00,0.0239
1403.00,0.0235
1402.00,0.0230
1401.00,0.0225
1400.00,0.0220
1399.00,0.0215
1398.00,0.0210
1397.00,0.0206
1396.00,0.0201
1395.00,0.0197
1394.00,0.0194
1393.00,0.0192
1392.00,0.0190
1391.00,0.0189
1390.00,0.0187
1389.00,0.0186
1388.00,0.0188
1387.00,0.0191
1386.00,0.0196
1385.00,0.0201
1384.00,0.0205
1383.00,0.0208
1382.00,0.0211
1381.00,0.0213
1380.00,0.0215
1379.00,0.0217
1378.00,0.0218
1377.00,0.0218
1376.00,0.0217
1375.00,0.0215
1374.00,0.0213
1373.00,0.0210
1372.00,0.0207
1371.00,0.0203
1370.00,0.0198
1369.00,0.0193
1368.00,0.0188
1367.00,0.0183
1366.00,0.0177
1365.00,0.0172
1364.00,0.0167
1363.00,0.0163
1362.00,0.0161
1361.00,0.0159
1360.00,0.0158
1359.00,0.0156
1358.00,0.0154
1357.00,0.0152
1356.00,0.0150
1355.00,0.0148
1354.00,0.0146
1353.00,0.0143
1352.00,0.0140
1351.00,0.0137
1350.00,0.0132
1349.00,0.0128
1348.00,0.0123
1347.00,0.0118
1346.00,0.0113
1345.00,0.0108
1344.00,0.0103
1343.00,0.0099
1342.00,0.0094
1341.00,0.0089
1340.00,0.0085
1339.00,0.0083
1338.00,0.0081
1337.00,0.0078
1336.00,0.0076
1335.00,0.0073
1334.00,0.0070
1333.00,0.0067
1332.00,0.0064
1331.00,0.0061
1330.00,0.0060
1329.00,0.0059
1328.00,0.0058
1327.00,0.0058
1326.00,0.0059
1325.00,0.0059
1324.00,0.0059
1323.00,0.0059
1322.00,0.0059
1321.00,0.0059
1320.00,0.0059
1319.00,0.0060
1318.00,0.0060
1317.00,0.0060
1316.00,0.0060
1315.00,0.0060
1314.00,0.0059
1313.00,0.0059
1312.00,0.0059
1311.00,0.0060
1310.00,0.0060
1309.00,0.0061
1308.00,0.0062
1307.00,0.0063
1306.00,0.0065
1305.00,0.0067
1304.00,0.0071
1303.00,0.0075
1302.00,0.0080
1301.00,0.0085
1300.00,0.0091
1299.00,0.0098
1298.00,0.0106
1297.00,0.0115
1296.00,0.0125
1295.00,0.0135
1294.00,0.0147
1293.00,0.0159
1292.00,0.0173
1291.00,0.0188
1290.00,0.0203
1289.00,0.0220
1288.00,0.0238
1287.00,0.0257
1286.00,0.0277
1285.00,0.0299
1284.00,0.0321
1283.00,0.0344
1282.00,0.0367
1281.00,0.0392
1280.00,0.0418
1279.00,0.0444
1278.00,0.0470
1277.00,0.0497
1276.00,0.0525
1275.00,0.0553
1274.00,0.0581
1273.00,0.0610
1272.00,0.0639
1271.00,0.0668
1270.00,0.0696
1269.00,0.0724
1268.00,0.0751
1267.00,0.0777
1266.00,0.0802
1265.00,0.0826
1264.00,0.0849
1263.00,0.0871
1262.00,0.0892
1261.00,0.0912
1260.00,0.0931
1259.00,0.0949
1258.00,0.0965
1257.00,0.0980
1256.00,0.0994
1255.00,0.1007
1254.00,0.1018
1253.00,0.1029
1252.00,0.1039
1251.00,0.1049
1250.00,0.1057
1249.00,0.1066
1248.00,0.1073
1247.00,0.1080
1246.00,0.1087
1245.00,0.1093
1244.00,0.1101
1243.00,0.1109
1242.00,0.1116
1241.00,0.1125
1240.00,0.1135
1239.00,0.1145
1238.00,0.1155
1237.00,0.1166
1236.00,0.1177
1235.00,0.1189
1234.00,0.1201
1233.00,0.1214
1232.00,0.1227
1231.00,0.1239
1230.00,0.1250
1229.00,0.1262
1228.00,0.1273
1227.00,0.1283
1226.00,0.1291
1225.00,0.1299
1224.00,0.1305
1223.00,0.1310
1222.00,0.1314
1221.00,0.1317
1220.00,0.1318
1219.00,0.1317
1218.00,0.1314
1217.00,0.1308
1216.00,0.1301
1215.00,0.1291
1214.00,0.1279
1213.00,0.1264
1212.00,0.1248
1211.00,0.1229
1210.00,0.1209
1209.00,0.1189
1208.00,0.1168
1207.00,0.1147
1206.00,0.1124
1205.00,0.1102
1204.00,0.1082
1203.00,0.1062
1202.00,0.1044
1201.00,0.1029
1200.00,0.1016
1199.00,0.1005
1198.00,0.0996
1197.00,0.0989
1196.00,0.0984
1195.00,0.0978
1194.00,0.0970
1193.00,0.0960
1192.00,0.0945
1191.00,0.0925
1190.00,0.0899
1189.00,0.0870
1188.00,0.0838
1187.00,0.0805
1186.00,0.0773
1185.00,0.0742
1184.00,0.0716
1183.00,0.0694
1182.00,0.0676
1181.00,0.0663
1180.00,0.0653
1179.00,0.0647
1178.00,0.0644
1177.00,0.0644
1176.00,0.0648
1175.00,0.0654
1174.00,0.0664
1173.00,0.0677
1172.00,0.0693
1171.00,0.0711
1170.00,0.0732
1169.00,0.0757
1168.00,0.0784
1167.00,0.0814
1166.00,0.0844
1165.00,0.0877
1164.00,0.0910
1163.00,0.0943
1162.00,0.0975
1161.00,0.1006
1160.00,0.1034
1159.00,0.1061
1158.00,0.1084
1157.00,0.1104
1156.00,0.1121
1155.00,0.1134
1154.00,0.1144
1153.00,0.1151
1152.00,0.1155
1151.00,0.1155
1150.00,0.1151
1149.00,0.1145
1148.00,0.1137
1147.00,0.1126
1146.00,0.1114
1145.00,0.1101
1144.00,0.1088
1143.00,0.1075
1142.00,0.1064
1141.00,0.1054
1140.00,0.1047
1139.00,0.1042
1138.00,0.1038
1137.00,0.1036
1136.00,0.1035
1135.00,0.1035
1134.00,0.1038
1133.00,0.1045
1132.00,0.1056
1131.00,0.1071
1130.00,0.1092
1129.00,0.1117
1128.00,0.1144
1127.00,0.1170
1126.00,0.1189
1125.00,0.1198
1124.00,0.1197
1123.00,0.1185
1122.00,0.1165
1121.00,0.1141
1120.00,0.1116
1119.00,0.1092
1118.00,0.1071
1117.00,0.1052
1116.00,0.1037
1115.00,0.1025
1114.00,0.1015
1113.00,0.1009
1112.00,0.1006
1111.00,0.1006
1110.00,0.1009
1109.00,0.1015
1108.00,0.1025
1107.00,0.1039
1106.00,0.1056
1105.00,0.1076
1104.00,0.1098
1103.00,0.1123
1102.00,0.1150
1101.00,0.1179
1100.00,0.1209
1099.00,0.1239
1098.00,0.1268
1097.00,0.1295
1096.00,0.1321
1095.00,0.1343
1094.00,0.1363
1093.00,0.1380
1092.00,0.1397
1091.00,0.1414
1090.00,0.1430
1089.00,0.1450
1088.00,0.1472
1087.00,0.1495
1086.00,0.1521
1085.00,0.1549
1084.00,0.1580
1083.00,0.1612
1082.00,0.1646
1081.00,0.1682
1080.00,0.1721
1079.00,0.1760
1078.00,0.1800
1077.00,0.1839
1076.00,0.1878
1075.00,0.1915
1074.00,0.1949
1073.00,0.1982
1072.00,0.2011
1071.00,0.2035
1070.00,0.2055
1069.00,0.2071
1068.00,0.2084
1067.00,0.2090
1066.00,0.2089
1065.00,0.2081
1064.00,0.2065
1063.00,0.2043
1062.00,0.2018
1061.00,0.1992
1060.00,0.1967
1059.00,0.1945
1058.00,0.1926
1057.00,0.1912
1056.00,0.1903
1055.00,0.1900
1054.00,0.1902
1053.00,0.1909
1052.00,0.1922
1051.00,0.1939
1050.00,0.1960
1049.00,0.1986
1048.00,0.2017
1047.00,0.2051
1046.00,0.2086
1045.00,0.2122
1044.00,0.2156
1043.00,0.2187
1042.00,0.2212
1041.00,0.2232
1040.00,0.2247
1039.00,0.2255
1038.00,0.2258
1037.00,0.2257
1036.00,0.2255
1035.00,0.2251
1034.00,0.2248
1033.00,0.2247
1032.00,0.2248
1031.00,0.2250
1030.00,0.2249
1029.00,0.2243
1028.00,0.2232
1027.00,0.2213
1026.00,0.2185
1025.00,0.2148
1024.00,0.2104
1023.00,0.2053
1022.00,0.1996
1021.00,0.1938
1020.00,0.1879
1019.00,0.1819
1018.00,0.1760
1017.00,0.1703
1016.00,0.1650
1015.00,0.1601
1014.00,0.1556
1013.00,0.1517
1012.00,0.1483
1011.00,0.1453
1010.00,0.1427
1009.00,0.1404
1008.00,0.1385
1007.00,0.1367
1006.00,0.1349
1005.00,0.1329
1004.00,0.1305
1003.00,0.1275
1002.00,0.1236
1001.00,0.1190
1000.00,0.1139
999.00,0.1085
998.00,0.1030
997.00,0.0979
996.00,0.0932
995.00,0.0892
994.00,0.0857
993.00,0.0828
992.00,0.0803
991.00,0.0780
990.00,0.0757
989.00,0.0735
988.00,0.0713
987.00,0.0690
986.00,0.0666
985.00,0.0643
984.00,0.0622
983.00,0.0603
982.00,0.0588
981.00,0.0577
980.00,0.0567
979.00,0.0560
978.00,0.0554
977.00,0.0549
976.00,0.0545
975.00,0.0541
974.00,0.0536
973.00,0.0531
972.00,0.0525
971.00,0.0516
970.00,0.0503
969.00,0.0485
968.00,0.0460
967.00,0.0429
966.00,0.0392
965.00,0.0351
964.00,0.0307
963.00,0.0264
962.00,0.0223
961.00,0.0186
960.00,0.0153
959.00,0.0125
958.00,0.0102
957.00,0.0084
956.00,0.0070
955.00,0.0060
954.00,0.0053
953.00,0.0049
952.00,0.0048
951.00,0.0050
950.00,0.0055
949.00,0.0062
948.00,0.0072
947.00,0.0086
946.00,0.0103
945.00,0.0124
944.00,0.0150
943.00,0.0180
942.00,0.0215
941.00,0.0256
940.00,0.0302
939.00,0.0353
938.00,0.0406
937.00,0.0462
936.00,0.0518
935.00,0.0572
934.00,0.0621
933.00,0.0664
932.00,0.0701
931.00,0.0730
930.00,0.0752
929.00,0.0767
928.00,0.0777
927.00,0.0779
926.00,0.0776
925.00,0.0768
924.00,0.0755
923.00,0.0740
922.00,0.0721
921.00,0.0701
920.00,0.0679
919.00,0.0655
918.00,0.0630
917.00,0.0602
916.00,0.0573
915.00,0.0542
914.00,0.0510
913.00,0.0478
912.00,0.0447
911.00,0.0419
910.00,0.0392
909.00,0.0368
908.00,0.0346
907.00,0.0327
906.00,0.0312
905.00,0.0299
904.00,0.0289
903.00,0.0281
902.00,0.0274
901.00,0.0268
900.00,0.0264
899.00,0.0260
898.00,0.0256
897.00,0.0253
896.00,0.0251
895.00,0.0250
894.00,0.0250
893.00,0.0251
892.00,0.0251
891.00,0.0249
890.00,0.0246
889.00,0.0240
888.00,0.0232
887.00,0.0220
886.00,0.0205
885.00,0.0186
884.00,0.0164
883.00,0.0139
882.00,0.0114
881.00,0.0092
880.00,0.0074
879.00,0.0060
878.00,0.0052
877.00,0.0048
876.00,0.0048
875.00,0.0051
874.00,0.0056
873.00,0.0060
872.00,0.0063
871.00,0.0064
870.00,0.0064
869.00,0.0063
868.00,0.0063
867.00,0.0064
866.00,0.0066
865.00,0.0072
864.00,0.0081
863.00,0.0093
862.00,0.0109
861.00,0.0129
860.00,0.0152
859.00,0.0177
858.00,0.0205
857.00,0.0234
856.00,0.0266
855.00,0.0298
854.00,0.0332
853.00,0.0366
852.00,0.0400
851.00,0.0433
850.00,0.0462
849.00,0.0486
848.00,0.0505
847.00,0.0517
846.00,0.0521
845.00,0.0518
844.00,0.0509
843.00,0.0492
842.00,0.0469
841.00,0.0440
840.00,0.0408
839.00,0.0375
838.00,0.0342
837.00,0.0312
836.00,0.0283
835.00,0.0256
834.00,0.0230
833.00,0.0206
832.00,0.0184
831.00,0.0165
830.00,0.0147
829.00,0.0131
828.00,0.0118
827.00,0.0106
826.00,0.0096
825.00,0.0087
824.00,0.0079
823.00,0.0072
822.00,0.0066
821.00,0.0062
820.00,0.0059
819.00,0.0057
818.00,0.0056
817.00,0.0056
816.00,0.0058
815.00,0.0061
814.00,0.0063
813.00,0.0067
812.00,0.0073
811.00,0.0079
810.00,0.0087
809.00,0.0095
808.00,0.0102
807.00,0.0109
806.00,0.0114
805.00,0.0119
804.00,0.0122
803.00,0.0124
802.00,0.0124
801.00,0.0124
800.00,0.0122
799.00,0.0120
798.00,0.0115
797.00,0.0110
796.00,0.0104
795.00,0.0097
794.00,0.0089
793.00,0.0082
792.00,0.0075
791.00,0.0069
790.00,0.0064
789.00,0.0060
788.00,0.0057
787.00,0.0056
786.00,0.0054
785.00,0.0053
784.00,0.0054
783.00,0.0057
782.00,0.0060
781.00,0.0064
780.00,0.0068
779.00,0.0074
778.00,0.0082
777.00,0.0091
776.00,0.0102
775.00,0.0111
774.00,0.0117
773.00,0.0120
772.00,0.0120
771.00,0.0116
770.00,0.0110
769.00,0.0103
768.00,0.0096
767.00,0.0088
766.00,0.0080
765.00,0.0073
764.00,0.0067
763.00,0.0062
762.00,0.0059
761.00,0.0056
760.00,0.0055
759.00,0.0055
758.00,0.0057
757.00,0.0061
756.00,0.0068
755.00,0.0076
754.00,0.0085
753.00,0.0098
752.00,0.0113
751.00,0.0130
750.00,0.0148
749.00,0.0168
748.00,0.0187
747.00,0.0205
746.00,0.0222
745.00,0.0238
744.00,0.0253
743.00,0.0267
742.00,0.0278
741.00,0.0286
740.00,0.0294
739.00,0.0300
738.00,0.0305
737.00,0.0309
736.00,0.0312
735.00,0.0314
734.00,0.0313
733.00,0.0311
732.00,0.0309
731.00,0.0307
730.00,0.0306
729.00,0.0307
728.00,0.0309
727.00,0.0311
726.00,0.0312
725.00,0.0312
724.00,0.0312
723.00,0.0310
722.00,0.0305
721.00,0.0299
720.00,0.0292
719.00,0.0286
718.00,0.0281
717.00,0.0277
716.00,0.0276
715.00,0.0277
714.00,0.0280
713.00,0.0285
712.00,0.0293
711.00,0.0303
710.00,0.0315
709.00,0.0329
708.00,0.0345
707.00,0.0361
706.00,0.0376
705.00,0.0390
704.00,0.0403
703.00,0.0412
702.00,0.0418
701.00,0.0421
700.00,0.0421
699.00,0.0416
698.00,0.0408
697.00,0.0399
696.00,0.0387
695.00,0.0372
694.00,0.0354
693.00,0.0333
692.00,0.0312
691.00,0.0290
690.00,0.0268
689.00,0.0249
688.00,0.0233
687.00,0.0216
686.00,0.0200
685.00,0.0185
684.00,0.0174
683.00,0.0164
682.00,0.0155
681.00,0.0148
680.00,0.0144
679.00,0.0142
678.00,0.0142
677.00,0.0145
676.00,0.0149
675.00,0.0152
674.00,0.0153
673.00,0.0155
672.00,0.0154
671.00,0.0149
670.00,0.0143
669.00,0.0146
668.00,0.0167
667.00,0.0189
666.00,0.0194
665.00,0.0186
664.00,0.0179
663.00,0.0181
662.00,0.0192
661.00,0.0209
660.00,0.0230
659.00,0.0251
658.00,0.0267
657.00,0.0273
656.00,0.0267
655.00,0.0252
654.00,0.0231
653.00,0.0209
652.00,0.0191
651.00,0.0176
650.00,0.0164
649.00,0.0156
648.00,0.0156
647.00,0.0161
646.00,0.0168
645.00,0.0176
644.00,0.0180
643.00,0.0177
642.00,0.0165
641.00,0.0150
640.00,0.0136
639.00,0.0124
638.00,0.0114
637.00,0.0108
636.00,0.0106
635.00,0.0108
634.00,0.0110
633.00,0.0113
632.00,0.0117
631.00,0.0124
630.00,0.0132
629.00,0.0142
628.00,0.0154
627.00,0.0168
626.00,0.0184
625.00,0.0201
624.00,0.0219
623.00,0.0236
622.00,0.0253
621.00,0.0271
620.00,0.0294
619.00,0.0319
618.00,0.0345
617.00,0.0371
616.00,0.0398
615.00,0.0423
614.00,0.0445
613.00,0.0465
612.00,0.0486
611.00,0.0507
610.00,0.0526
609.00,0.0547
608.00,0.0571
607.00,0.0597
606.00,0.0620
605.00,0.0642
604.00,0.0660
603.00,0.0673
602.00,0.0680
601.00,0.0685
600.00,0.0689
599.00,0.0691
598.00,0.0690
597.00,0.0689
596.00,0.0689
595.00,0.0687
594.00,0.0681
593.00,0.0675
592.00,0.0671
591.00,0.0669
590.00,0.0666
589.00,0.0662
588.00,0.0661
587.00,0.0661
586.00,0.0665
585.00,0.0673
584.00,0.0686
583.00,0.0698
582.00,0.0707
581.00,0.0713
580.00,0.0718
579.00,0.0722
578.00,0.0722
577.00,0.0721
576.00,0.0720
575.00,0.0716
574.00,0.0705
573.00,0.0691
572.00,0.0676
571.00,0.0662
570.00,0.0649
569.00,0.0638
568.00,0.0629
567.00,0.0618
566.00,0.0603
565.00,0.0588
564.00,0.0579
563.00,0.0571
562.00,0.0563
561.00,0.0554
560.00,0.0547
559.00,0.0538
558.00,0.0524
557.00,0.0509
556.00,0.0496
555.00,0.0484
554.00,0.0471
553.00,0.0460
552.00,0.0455
551.00,0.0455
550.00,0.0454
549.00,0.0451
548.00,0.0449
547.00,0.0445
546.00,0.0441
545.00,0.0440
544.00,0.0444
543.00,0.0449
542.00,0.0454
541.00,0.0459
540.00,0.0466
539.00,0.0466
538.00,0.0458
537.00,0.0447
536.00,0.0439
535.00,0.0434
534.00,0.0426
533.00,0.0416
532.00,0.0408
531.00,0.0402
530.00,0.0395
529.00,0.0388
528.00,0.0386
527.00,0.0386
526.00,0.0387
525.00,0.0389
524.00,0.0391
523.00,0.0391
522.00,0.0387
521.00,0.0382
520.00,0.0380
519.00,0.0375
518.00,0.0367
517.00,0.0361
516.00,0.0362
515.00,0.0364
514.00,0.0359
513.00,0.0349
512.00,0.0337
511.00,0.0322
510.00,0.0305
509.00,0.0289
508.00,0.0278
507.00,0.0270
506.00,0.0260
505.00,0.0248
504.00,0.0238
503.00,0.0229
502.00,0.0219
501.00,0.0208
500.00,0.0199
499.00,0.0193
498.00,0.0187
497.00,0.0185
496.00,0.0186
495.00,0.0185
494.00,0.0179
493.00,0.0173
492.00,0.0175
491.00,0.0178
490.00,0.0175
489.00,0.0168
488.00,0.0163
487.00,0.0159
486.00,0.0154
485.00,0.0150
484.00,0.0150
483.00,0.0153
482.00,0.0155
481.00,0.0154
480.00,0.0154
479.00,0.0151
478.00,0.0144
477.00,0.0139
476.00,0.0138
475.00,0.0137
474.00,0.0135
473.00,0.0137
472.00,0.0146
471.00,0.0151
470.00,0.0146
469.00,0.0138
468.00,0.0136
467.00,0.0133
466.00,0.0121
465.00,0.0105
464.00,0.0097
463.00,0.0094
462.00,0.0086
461.00,0.0071
460.00,0.0059
459.00,0.0055
458.00,0.0060
457.00,0.0070
456.00,0.0079
455.00,0.0076
454.00,0.0061
453.00,0.0048
452.00,0.0046
451.00,0.0050
450.00,0.0048
