Created as New Dataset,Sample 004 By Administrator Date Monday, June 09 2025
cm-1,A
4000.00,0.0044
3999.00,0.0044
3998.00,0.0044
3997.00,0.0044
3996.00,0.0044
3995.00,0.0044
3994.00,0.0044
3993.00,0.0044
3992.00,0.0044
3991.00,0.0044
3990.00,0.0044
3989.00,0.0045
3988.00,0.0045
3987.00,0.0045
3986.00,0.0045
3985.00,0.0045
3984.00,0.0045
3983.00,0.0044
3982.00,0.0044
3981.00,0.0045
3980.00,0.0045
3979.00,0.0045
3978.00,0.0046
3977.00,0.0046
3976.00,0.0046
3975.00,0.0046
3974.00,0.0046
3973.00,0.0046
3972.00,0.0045
3971.00,0.0045
3970.00,0.0044
3969.00,0.0044
3968.00,0.0045
3967.00,0.0045
3966.00,0.0045
3965.00,0.0045
3964.00,0.0045
3963.00,0.0045
3962.00,0.0045
3961.00,0.0045
3960.00,0.0046
3959.00,0.0046
3958.00,0.0046
3957.00,0.0046
3956.00,0.0046
3955.00,0.0047
3954.00,0.0047
3953.00,0.0047
3952.00,0.0047
3951.00,0.0047
3950.00,0.0047
3949.00,0.0047
3948.00,0.0047
3947.00,0.0047
3946.00,0.0048
3945.00,0.0048
3944.00,0.0048
3943.00,0.0047
3942.00,0.0046
3941.00,0.0045
3940.00,0.0045
3939.00,0.0046
3938.00,0.0046
3937.00,0.0046
3936.00,0.0047
3935.00,0.0048
3934.00,0.0049
3933.00,0.0049
3932.00,0.0049
3931.00,0.0048
3930.00,0.0048
3929.00,0.0048
3928.00,0.0048
3927.00,0.0048
3926.00,0.0048
3925.00,0.0047
3924.00,0.0046
3923.00,0.0047
3922.00,0.0047
3921.00,0.0049
3920.00,0.0049
3919.00,0.0050
3918.00,0.0050
3917.00,0.0049
3916.00,0.0048
3915.00,0.0048
3914.00,0.0047
3913.00,0.0047
3912.00,0.0046
3911.00,0.0046
3910.00,0.0045
3909.00,0.0045
3908.00,0.0046
3907.00,0.0047
3906.00,0.0049
3905.00,0.0050
3904.00,0.0051
3903.00,0.0053
3902.00,0.0055
3901.00,0.0056
3900.00,0.0055
3899.00,0.0054
3898.00,0.0052
3897.00,0.0050
3896.00,0.0050
3895.00,0.0050
3894.00,0.0049
3893.00,0.0049
3892.00,0.0048
3891.00,0.0048
3890.00,0.0048
3889.00,0.0049
3888.00,0.0050
3887.00,0.0052
3886.00,0.0052
3885.00,0.0051
3884.00,0.0051
3883.00,0.0051
3882.00,0.0052
3881.00,0.0052
3880.00,0.0051
3879.00,0.0050
3878.00,0.0050
3877.00,0.0051
3876.00,0.0052
3875.00,0.0052
3874.00,0.0051
3873.00,0.0051
3872.00,0.0052
3871.00,0.0053
3870.00,0.0053
3869.00,0.0053
3868.00,0.0053
3867.00,0.0053
3866.00,0.0054
3865.00,0.0055
3864.00,0.0054
3863.00,0.0053
3862.00,0.0052
3861.00,0.0052
3860.00,0.0052
3859.00,0.0051
3858.00,0.0050
3857.00,0.0049
3856.00,0.0049
3855.00,0.0050
3854.00,0.0052
3853.00,0.0053
3852.00,0.0054
3851.00,0.0054
3850.00,0.0054
3849.00,0.0054
3848.00,0.0053
3847.00,0.0052
3846.00,0.0051
3845.00,0.0051
3844.00,0.0051
3843.00,0.0052
3842.00,0.0053
3841.00,0.0054
3840.00,0.0055
3839.00,0.0055
3838.00,0.0055
3837.00,0.0055
3836.00,0.0055
3835.00,0.0055
3834.00,0.0055
3833.00,0.0054
3832.00,0.0054
3831.00,0.0053
3830.00,0.0052
3829.00,0.0052
3828.00,0.0052
3827.00,0.0051
3826.00,0.0050
3825.00,0.0050
3824.00,0.0051
3823.00,0.0054
3822.00,0.0055
3821.00,0.0055
3820.00,0.0054
3819.00,0.0054
3818.00,0.0055
3817.00,0.0055
3816.00,0.0055
3815.00,0.0053
3814.00,0.0051
3813.00,0.0050
3812.00,0.0049
3811.00,0.0048
3810.00,0.0048
3809.00,0.0048
3808.00,0.0049
3807.00,0.0050
3806.00,0.0051
3805.00,0.0052
3804.00,0.0054
3803.00,0.0056
3802.00,0.0056
3801.00,0.0055
3800.00,0.0055
3799.00,0.0055
3798.00,0.0056
3797.00,0.0055
3796.00,0.0053
3795.00,0.0051
3794.00,0.0050
3793.00,0.0049
3792.00,0.0048
3791.00,0.0048
3790.00,0.0047
3789.00,0.0047
3788.00,0.0047
3787.00,0.0047
3786.00,0.0048
3785.00,0.0048
3784.00,0.0048
3783.00,0.0049
3782.00,0.0050
3781.00,0.0051
3780.00,0.0051
3779.00,0.0050
3778.00,0.0049
3777.00,0.0049
3776.00,0.0049
3775.00,0.0049
3774.00,0.0049
3773.00,0.0049
3772.00,0.0050
3771.00,0.0051
3770.00,0.0052
3769.00,0.0053
3768.00,0.0054
3767.00,0.0055
3766.00,0.0056
3765.00,0.0056
3764.00,0.0055
3763.00,0.0056
3762.00,0.0057
3761.00,0.0058
3760.00,0.0058
3759.00,0.0058
3758.00,0.0058
3757.00,0.0058
3756.00,0.0059
3755.00,0.0061
3754.00,0.0062
3753.00,0.0064
3752.00,0.0065
3751.00,0.0066
3750.00,0.0067
3749.00,0.0069
3748.00,0.0070
3747.00,0.0071
3746.00,0.0072
3745.00,0.0072
3744.00,0.0070
3743.00,0.0069
3742.00,0.0069
3741.00,0.0069
3740.00,0.0069
3739.00,0.0071
3738.00,0.0072
3737.00,0.0074
3736.00,0.0074
3735.00,0.0072
3734.00,0.0071
3733.00,0.0071
3732.00,0.0070
3731.00,0.0069
3730.00,0.0068
3729.00,0.0068
3728.00,0.0069
3727.00,0.0069
3726.00,0.0069
3725.00,0.0068
3724.00,0.0068
3723.00,0.0067
3722.00,0.0067
3721.00,0.0067
3720.00,0.0066
3719.00,0.0066
3718.00,0.0066
3717.00,0.0066
3716.00,0.0066
3715.00,0.0068
3714.00,0.0070
3713.00,0.0072
3712.00,0.0074
3711.00,0.0075
3710.00,0.0076
3709.00,0.0077
3708.00,0.0078
3707.00,0.0077
3706.00,0.0077
3705.00,0.0077
3704.00,0.0077
3703.00,0.0077
3702.00,0.0077
3701.00,0.0077
3700.00,0.0078
3699.00,0.0079
3698.00,0.0080
3697.00,0.0081
3696.00,0.0082
3695.00,0.0083
3694.00,0.0085
3693.00,0.0088
3692.00,0.0091
3691.00,0.0093
3690.00,0.0095
3689.00,0.0098
3688.00,0.0101
3687.00,0.0103
3686.00,0.0105
3685.00,0.0106
3684.00,0.0106
3683.00,0.0107
3682.00,0.0108
3681.00,0.0110
3680.00,0.0112
3679.00,0.0114
3678.00,0.0118
3677.00,0.0124
3676.00,0.0129
3675.00,0.0134
3674.00,0.0138
3673.00,0.0143
3672.00,0.0148
3671.00,0.0152
3670.00,0.0155
3669.00,0.0156
3668.00,0.0158
3667.00,0.0160
3666.00,0.0162
3665.00,0.0164
3664.00,0.0166
3663.00,0.0169
3662.00,0.0171
3661.00,0.0175
3660.00,0.0178
3659.00,0.0183
3658.00,0.0189
3657.00,0.0195
3656.00,0.0201
3655.00,0.0208
3654.00,0.0214
3653.00,0.0220
3652.00,0.0227
3651.00,0.0234
3650.00,0.0242
3649.00,0.0251
3648.00,0.0261
3647.00,0.0268
3646.00,0.0274
3645.00,0.0278
3644.00,0.0281
3643.00,0.0284
3642.00,0.0287
3641.00,0.0291
3640.00,0.0296
3639.00,0.0301
3638.00,0.0306
3637.00,0.0313
3636.00,0.0320
3635.00,0.0327
3634.00,0.0333
3633.00,0.0339
3632.00,0.0345
3631.00,0.0352
3630.00,0.0362
3629.00,0.0373
3628.00,0.0385
3627.00,0.0396
3626.00,0.0404
3625.00,0.0410
3624.00,0.0415
3623.00,0.0419
3622.00,0.0423
3621.00,0.0428
3620.00,0.0436
3619.00,0.0445
3618.00,0.0455
3617.00,0.0465
3616.00,0.0474
3615.00,0.0481
3614.00,0.0488
3613.00,0.0494
3612.00,0.0501
3611.00,0.0509
3610.00,0.0517
3609.00,0.0525
3608.00,0.0532
3607.00,0.0539
3606.00,0.0546
3605.00,0.0553
3604.00,0.0559
3603.00,0.0565
3602.00,0.0571
3601.00,0.0577
3600.00,0.0584
3599.00,0.0592
3598.00,0.0600
3597.00,0.0608
3596.00,0.0616
3595.00,0.0624
3594.00,0.0631
3593.00,0.0639
3592.00,0.0646
3591.00,0.0653
3590.00,0.0659
3589.00,0.0667
3588.00,0.0676
3587.00,0.0686
3586.00,0.0697
3585.00,0.0707
3584.00,0.0714
3583.00,0.0720
3582.00,0.0725
3581.00,0.0730
3580.00,0.0736
3579.00,0.0742
3578.00,0.0749
3577.00,0.0757
3576.00,0.0764
3575.00,0.0772
3574.00,0.0780
3573.00,0.0788
3572.00,0.0796
3571.00,0.0802
3570.00,0.0809
3569.00,0.0817
3568.00,0.0826
3567.00,0.0838
3566.00,0.0850
3565.00,0.0862
3564.00,0.0872
3563.00,0.0880
3562.00,0.0885
3561.00,0.0891
3560.00,0.0896
3559.00,0.0903
3558.00,0.0909
3557.00,0.0916
3556.00,0.0923
3555.00,0.0931
3554.00,0.0939
3553.00,0.0947
3552.00,0.0957
3551.00,0.0966
3550.00,0.0975
3549.00,0.0983
3548.00,0.0991
3547.00,0.0999
3546.00,0.1007
3545.00,0.1015
3544.00,0.1024
3543.00,0.1032
3542.00,0.1039
3541.00,0.1045
3540.00,0.1050
3539.00,0.1056
3538.00,0.1062
3537.00,0.1069
3536.00,0.1076
3535.00,0.1083
3534.00,0.1090
3533.00,0.1097
3532.00,0.1102
3531.00,0.1108
3530.00,0.1113
3529.00,0.1120
3528.00,0.1128
3527.00,0.1136
3526.00,0.1144
3525.00,0.1152
3524.00,0.1159
3523.00,0.1166
3522.00,0.1172
3521.00,0.1178
3520.00,0.1183
3519.00,0.1189
3518.00,0.1194
3517.00,0.1200
3516.00,0.1206
3515.00,0.1212
3514.00,0.1218
3513.00,0.1224
3512.00,0.1230
3511.00,0.1236
3510.00,0.1242
3509.00,0.1249
3508.00,0.1256
3507.00,0.1263
3506.00,0.1270
3505.00,0.1277
3504.00,0.1284
3503.00,0.1290
3502.00,0.1297
3501.00,0.1304
3500.00,0.1310
3499.00,0.1317
3498.00,0.1322
3497.00,0.1329
3496.00,0.1335
3495.00,0.1341
3494.00,0.1347
3493.00,0.1354
3492.00,0.1360
3491.00,0.1366
3490.00,0.1372
3489.00,0.1378
3488.00,0.1385
3487.00,0.1392
3486.00,0.1398
3485.00,0.1405
3484.00,0.1411
3483.00,0.1417
3482.00,0.1423
3481.00,0.1430
3480.00,0.1437
3479.00,0.1443
3478.00,0.1449
3477.00,0.1455
3476.00,0.1461
3475.00,0.1467
3474.00,0.1473
3473.00,0.1480
3472.00,0.1487
3471.00,0.1493
3470.00,0.1499
3469.00,0.1506
3468.00,0.1512
3467.00,0.1518
3466.00,0.1524
3465.00,0.1530
3464.00,0.1536
3463.00,0.1542
3462.00,0.1548
3461.00,0.1554
3460.00,0.1560
3459.00,0.1567
3458.00,0.1573
3457.00,0.1579
3456.00,0.1584
3455.00,0.1590
3454.00,0.1595
3453.00,0.1601
3452.00,0.1607
3451.00,0.1612
3450.00,0.1618
3449.00,0.1624
3448.00,0.1630
3447.00,0.1637
3446.00,0.1644
3445.00,0.1651
3444.00,0.1657
3443.00,0.1662
3442.00,0.1668
3441.00,0.1674
3440.00,0.1680
3439.00,0.1687
3438.00,0.1693
3437.00,0.1699
3436.00,0.1705
3435.00,0.1711
3434.00,0.1717
3433.00,0.1722
3432.00,0.1728
3431.00,0.1734
3430.00,0.1740
3429.00,0.1745
3428.00,0.1750
3427.00,0.1755
3426.00,0.1761
3425.00,0.1766
3424.00,0.1772
3423.00,0.1777
3422.00,0.1783
3421.00,0.1789
3420.00,0.1795
3419.00,0.1801
3418.00,0.1807
3417.00,0.1813
3416.00,0.1819
3415.00,0.1825
3414.00,0.1830
3413.00,0.1835
3412.00,0.1840
3411.00,0.1844
3410.00,0.1849
3409.00,0.1853
3408.00,0.1858
3407.00,0.1862
3406.00,0.1866
3405.00,0.1870
3404.00,0.1874
3403.00,0.1879
3402.00,0.1882
3401.00,0.1885
3400.00,0.1888
3399.00,0.1891
3398.00,0.1893
3397.00,0.1896
3396.00,0.1899
3395.00,0.1902
3394.00,0.1905
3393.00,0.1908
3392.00,0.1910
3391.00,0.1912
3390.00,0.1914
3389.00,0.1915
3388.00,0.1916
3387.00,0.1916
3386.00,0.1917
3385.00,0.1919
3384.00,0.1921
3383.00,0.1923
3382.00,0.1925
3381.00,0.1926
3380.00,0.1927
3379.00,0.1927
3378.00,0.1928
3377.00,0.1929
3376.00,0.1930
3375.00,0.1930
3374.00,0.1930
3373.00,0.1931
3372.00,0.1931
3371.00,0.1932
3370.00,0.1933
3369.00,0.1933
3368.00,0.1934
3367.00,0.1934
3366.00,0.1934
3365.00,0.1934
3364.00,0.1934
3363.00,0.1934
3362.00,0.1935
3361.00,0.1935
3360.00,0.1935
3359.00,0.1935
3358.00,0.1934
3357.00,0.1934
3356.00,0.1933
3355.00,0.1933
3354.00,0.1933
3353.00,0.1933
3352.00,0.1932
3351.00,0.1932
3350.00,0.1930
3349.00,0.1929
3348.00,0.1928
3347.00,0.1927
3346.00,0.1926
3345.00,0.1926
3344.00,0.1925
3343.00,0.1925
3342.00,0.1924
3341.00,0.1923
3340.00,0.1922
3339.00,0.1921
3338.00,0.1920
3337.00,0.1918
3336.00,0.1917
3335.00,0.1916
3334.00,0.1914
3333.00,0.1913
3332.00,0.1912
3331.00,0.1910
3330.00,0.1909
3329.00,0.1908
3328.00,0.1907
3327.00,0.1905
3326.00,0.1904
3325.00,0.1903
3324.00,0.1901
3323.00,0.1900
3322.00,0.1899
3321.00,0.1898
3320.00,0.1896
3319.00,0.1894
3318.00,0.1893
3317.00,0.1892
3316.00,0.1890
3315.00,0.1889
3314.00,0.1889
3313.00,0.1888
3312.00,0.1887
3311.00,0.1886
3310.00,0.1885
3309.00,0.1883
3308.00,0.1882
3307.00,0.1881
3306.00,0.1880
3305.00,0.1879
3304.00,0.1878
3303.00,0.1877
3302.00,0.1876
3301.00,0.1875
3300.00,0.1873
3299.00,0.1872
3298.00,0.1870
3297.00,0.1869
3296.00,0.1868
3295.00,0.1867
3294.00,0.1866
3293.00,0.1865
3292.00,0.1864
3291.00,0.1863
3290.00,0.1863
3289.00,0.1862
3288.00,0.1861
3287.00,0.1860
3286.00,0.1858
3285.00,0.1856
3284.00,0.1854
3283.00,0.1852
3282.00,0.1850
3281.00,0.1848
3280.00,0.1846
3279.00,0.1844
3278.00,0.1842
3277.00,0.1839
3276.00,0.1836
3275.00,0.1834
3274.00,0.1831
3273.00,0.1828
3272.00,0.1825
3271.00,0.1822
3270.00,0.1820
3269.00,0.1817
3268.00,0.1813
3267.00,0.1810
3266.00,0.1806
3265.00,0.1803
3264.00,0.1800
3263.00,0.1796
3262.00,0.1792
3261.00,0.1788
3260.00,0.1784
3259.00,0.1780
3258.00,0.1776
3257.00,0.1772
3256.00,0.1768
3255.00,0.1764
3254.00,0.1760
3253.00,0.1756
3252.00,0.1751
3251.00,0.1747
3250.00,0.1742
3249.00,0.1738
3248.00,0.1733
3247.00,0.1729
3246.00,0.1725
3245.00,0.1721
3244.00,0.1717
3243.00,0.1712
3242.00,0.1707
3241.00,0.1702
3240.00,0.1698
3239.00,0.1693
3238.00,0.1688
3237.00,0.1683
3236.00,0.1678
3235.00,0.1673
3234.00,0.1668
3233.00,0.1663
3232.00,0.1658
3231.00,0.1653
3230.00,0.1647
3229.00,0.1642
3228.00,0.1637
3227.00,0.1632
3226.00,0.1626
3225.00,0.1621
3224.00,0.1616
3223.00,0.1611
3222.00,0.1606
3221.00,0.1600
3220.00,0.1594
3219.00,0.1588
3218.00,0.1582
3217.00,0.1577
3216.00,0.1571
3215.00,0.1566
3214.00,0.1560
3213.00,0.1554
3212.00,0.1549
3211.00,0.1543
3210.00,0.1537
3209.00,0.1531
3208.00,0.1525
3207.00,0.1519
3206.00,0.1512
3205.00,0.1506
3204.00,0.1500
3203.00,0.1494
3202.00,0.1487
3201.00,0.1481
3200.00,0.1474
3199.00,0.1467
3198.00,0.1461
3197.00,0.1454
3196.00,0.1448
3195.00,0.1441
3194.00,0.1435
3193.00,0.1428
3192.00,0.1421
3191.00,0.1414
3190.00,0.1407
3189.00,0.1400
3188.00,0.1393
3187.00,0.1386
3186.00,0.1379
3185.00,0.1372
3184.00,0.1365
3183.00,0.1358
3182.00,0.1352
3181.00,0.1345
3180.00,0.1338
3179.00,0.1331
3178.00,0.1324
3177.00,0.1317
3176.00,0.1310
3175.00,0.1302
3174.00,0.1295
3173.00,0.1288
3172.00,0.1280
3171.00,0.1273
3170.00,0.1266
3169.00,0.1258
3168.00,0.1250
3167.00,0.1243
3166.00,0.1236
3165.00,0.1229
3164.00,0.1222
3163.00,0.1215
3162.00,0.1208
3161.00,0.1200
3160.00,0.1193
3159.00,0.1185
3158.00,0.1178
3157.00,0.1171
3156.00,0.1165
3155.00,0.1158
3154.00,0.1151
3153.00,0.1144
3152.00,0.1137
3151.00,0.1130
3150.00,0.1123
3149.00,0.1116
3148.00,0.1109
3147.00,0.1102
3146.00,0.1095
3145.00,0.1088
3144.00,0.1082
3143.00,0.1075
3142.00,0.1068
3141.00,0.1062
3140.00,0.1056
3139.00,0.1050
3138.00,0.1043
3137.00,0.1037
3136.00,0.1030
3135.00,0.1024
3134.00,0.1017
3133.00,0.1011
3132.00,0.1005
3131.00,0.1000
3130.00,0.0994
3129.00,0.0988
3128.00,0.0982
3127.00,0.0976
3126.00,0.0969
3125.00,0.0963
3124.00,0.0957
3123.00,0.0951
3122.00,0.0946
3121.00,0.0940
3120.00,0.0935
3119.00,0.0930
3118.00,0.0925
3117.00,0.0920
3116.00,0.0915
3115.00,0.0909
3114.00,0.0905
3113.00,0.0900
3112.00,0.0895
3111.00,0.0890
3110.00,0.0885
3109.00,0.0880
3108.00,0.0876
3107.00,0.0872
3106.00,0.0868
3105.00,0.0863
3104.00,0.0859
3103.00,0.0854
3102.00,0.0849
3101.00,0.0845
3100.00,0.0841
3099.00,0.0837
3098.00,0.0833
3097.00,0.0829
3096.00,0.0825
3095.00,0.0821
3094.00,0.0817
3093.00,0.0813
3092.00,0.0808
3091.00,0.0804
3090.00,0.0800
3089.00,0.0796
3088.00,0.0792
3087.00,0.0788
3086.00,0.0784
3085.00,0.0780
3084.00,0.0777
3083.00,0.0773
3082.00,0.0770
3081.00,0.0766
3080.00,0.0763
3079.00,0.0759
3078.00,0.0756
3077.00,0.0753
3076.00,0.0749
3075.00,0.0746
3074.00,0.0742
3073.00,0.0738
3072.00,0.0734
3071.00,0.0730
3070.00,0.0726
3069.00,0.0722
3068.00,0.0718
3067.00,0.0714
3066.00,0.0711
3065.00,0.0708
3064.00,0.0704
3063.00,0.0701
3062.00,0.0697
3061.00,0.0692
3060.00,0.0688
3059.00,0.0684
3058.00,0.0680
3057.00,0.0675
3056.00,0.0671
3055.00,0.0667
3054.00,0.0663
3053.00,0.0659
3052.00,0.0655
3051.00,0.0651
3050.00,0.0647
3049.00,0.0643
3048.00,0.0639
3047.00,0.0635
3046.00,0.0630
3045.00,0.0626
3044.00,0.0622
3043.00,0.0618
3042.00,0.0614
3041.00,0.0610
3040.00,0.0606
3039.00,0.0603
3038.00,0.0599
3037.00,0.0595
3036.00,0.0591
3035.00,0.0587
3034.00,0.0584
3033.00,0.0580
3032.00,0.0578
3031.00,0.0575
3030.00,0.0571
3029.00,0.0568
3028.00,0.0565
3027.00,0.0561
3026.00,0.0557
3025.00,0.0554
3024.00,0.0550
3023.00,0.0547
3022.00,0.0544
3021.00,0.0541
3020.00,0.0538
3019.00,0.0535
3018.00,0.0533
3017.00,0.0530
3016.00,0.0527
3015.00,0.0525
3014.00,0.0523
3013.00,0.0520
3012.00,0.0518
3011.00,0.0516
3010.00,0.0514
3009.00,0.0511
3008.00,0.0508
3007.00,0.0506
3006.00,0.0504
3005.00,0.0502
3004.00,0.0500
3003.00,0.0498
3002.00,0.0495
3001.00,0.0493
3000.00,0.0491
2999.00,0.0490
2998.00,0.0488
2997.00,0.0487
2996.00,0.0486
2995.00,0.0485
2994.00,0.0484
2993.00,0.0484
2992.00,0.0484
2991.00,0.0484
2990.00,0.0484
2989.00,0.0484
2988.00,0.0484
2987.00,0.0485
2986.00,0.0485
2985.00,0.0486
2984.00,0.0487
2983.00,0.0487
2982.00,0.0488
2981.00,0.0490
2980.00,0.0491
2979.00,0.0492
2978.00,0.0493
2977.00,0.0495
2976.00,0.0496
2975.00,0.0498
2974.00,0.0500
2973.00,0.0502
2972.00,0.0504
2971.00,0.0506
2970.00,0.0507
2969.00,0.0508
2968.00,0.0510
2967.00,0.0511
2966.00,0.0512
2965.00,0.0513
2964.00,0.0514
2963.00,0.0515
2962.00,0.0515
2961.00,0.0515
2960.00,0.0515
2959.00,0.0514
2958.00,0.0513
2957.00,0.0511
2956.00,0.0509
2955.00,0.0507
2954.00,0.0504
2953.00,0.0502
2952.00,0.0500
2951.00,0.0499
2950.00,0.0497
2949.00,0.0496
2948.00,0.0495
2947.00,0.0494
2946.00,0.0493
2945.00,0.0493
2944.00,0.0494
2943.00,0.0495
2942.00,0.0496
2941.00,0.0497
2940.00,0.0498
2939.00,0.0499
2938.00,0.0500
2937.00,0.0502
2936.00,0.0503
2935.00,0.0504
2934.00,0.0504
2933.00,0.0505
2932.00,0.0505
2931.00,0.0505
2930.00,0.0505
2929.00,0.0506
2928.00,0.0506
2927.00,0.0506
2926.00,0.0506
2925.00,0.0505
2924.00,0.0504
2923.00,0.0502
2922.00,0.0500
2921.00,0.0497
2920.00,0.0494
2919.00,0.0490
2918.00,0.0486
2917.00,0.0481
2916.00,0.0476
2915.00,0.0471
2914.00,0.0465
2913.00,0.0460
2912.00,0.0455
2911.00,0.0451
2910.00,0.0447
2909.00,0.0443
2908.00,0.0439
2907.00,0.0435
2906.00,0.0431
2905.00,0.0428
2904.00,0.0424
2903.00,0.0421
2902.00,0.0418
2901.00,0.0415
2900.00,0.0412
2899.00,0.0409
2898.00,0.0406
2897.00,0.0403
2896.00,0.0400
2895.00,0.0397
2894.00,0.0394
2893.00,0.0392
2892.00,0.0390
2891.00,0.0387
2890.00,0.0385
2889.00,0.0383
2888.00,0.0380
2887.00,0.0378
2886.00,0.0376
2885.00,0.0374
2884.00,0.0372
2883.00,0.0371
2882.00,0.0369
2881.00,0.0368
2880.00,0.0367
2879.00,0.0366
2878.00,0.0365
2877.00,0.0363
2876.00,0.0361
2875.00,0.0359
2874.00,0.0358
2873.00,0.0356
2872.00,0.0354
2871.00,0.0352
2870.00,0.0349
2869.00,0.0346
2868.00,0.0343
2867.00,0.0340
2866.00,0.0337
2865.00,0.0334
2864.00,0.0332
2863.00,0.0330
2862.00,0.0329
2861.00,0.0328
2860.00,0.0328
2859.00,0.0328
2858.00,0.0328
2857.00,0.0328
2856.00,0.0327
2855.00,0.0327
2854.00,0.0327
2853.00,0.0326
2852.00,0.0324
2851.00,0.0321
2850.00,0.0318
2849.00,0.0313
2848.00,0.0308
2847.00,0.0303
2846.00,0.0298
2845.00,0.0293
2844.00,0.0288
2843.00,0.0283
2842.00,0.0279
2841.00,0.0275
2840.00,0.0272
2839.00,0.0269
2838.00,0.0267
2837.00,0.0265
2836.00,0.0263
2835.00,0.0261
2834.00,0.0259
2833.00,0.0257
2832.00,0.0255
2831.00,0.0253
2830.00,0.0251
2829.00,0.0250
2828.00,0.0248
2827.00,0.0247
2826.00,0.0245
2825.00,0.0244
2824.00,0.0243
2823.00,0.0241
2822.00,0.0240
2821.00,0.0239
2820.00,0.0237
2819.00,0.0236
2818.00,0.0234
2817.00,0.0233
2816.00,0.0232
2815.00,0.0231
2814.00,0.0230
2813.00,0.0228
2812.00,0.0227
2811.00,0.0226
2810.00,0.0224
2809.00,0.0223
2808.00,0.0222
2807.00,0.0221
2806.00,0.0219
2805.00,0.0218
2804.00,0.0218
2803.00,0.0217
2802.00,0.0216
2801.00,0.0215
2800.00,0.0213
2799.00,0.0212
2798.00,0.0210
2797.00,0.0209
2796.00,0.0209
2795.00,0.0208
2794.00,0.0207
2793.00,0.0206
2792.00,0.0205
2791.00,0.0203
2790.00,0.0202
2789.00,0.0201
2788.00,0.0201
2787.00,0.0200
2786.00,0.0200
2785.00,0.0199
2784.00,0.0198
2783.00,0.0197
2782.00,0.0197
2781.00,0.0196
2780.00,0.0194
2779.00,0.0193
2778.00,0.0192
2777.00,0.0191
2776.00,0.0190
2775.00,0.0189
2774.00,0.0189
2773.00,0.0188
2772.00,0.0187
2771.00,0.0186
2770.00,0.0186
2769.00,0.0185
2768.00,0.0185
2767.00,0.0184
2766.00,0.0183
2765.00,0.0183
2764.00,0.0182
2763.00,0.0181
2762.00,0.0180
2761.00,0.0180
2760.00,0.0179
2759.00,0.0178
2758.00,0.0177
2757.00,0.0177
2756.00,0.0176
2755.00,0.0176
2754.00,0.0175
2753.00,0.0174
2752.00,0.0174
2751.00,0.0173
2750.00,0.0173
2749.00,0.0172
2748.00,0.0171
2747.00,0.0171
2746.00,0.0170
2745.00,0.0169
2744.00,0.0169
2743.00,0.0168
2742.00,0.0168
2741.00,0.0167
2740.00,0.0166
2739.00,0.0165
2738.00,0.0165
2737.00,0.0165
2736.00,0.0164
2735.00,0.0164
2734.00,0.0163
2733.00,0.0163
2732.00,0.0163
2731.00,0.0162
2730.00,0.0161
2729.00,0.0161
2728.00,0.0160
2727.00,0.0159
2726.00,0.0159
2725.00,0.0158
2724.00,0.0158
2723.00,0.0157
2722.00,0.0156
2721.00,0.0156
2720.00,0.0156
2719.00,0.0155
2718.00,0.0155
2717.00,0.0154
2716.00,0.0153
2715.00,0.0153
2714.00,0.0152
2713.00,0.0152
2712.00,0.0151
2711.00,0.0151
2710.00,0.0150
2709.00,0.0150
2708.00,0.0149
2707.00,0.0149
2706.00,0.0148
2705.00,0.0148
2704.00,0.0148
2703.00,0.0147
2702.00,0.0147
2701.00,0.0146
2700.00,0.0146
2699.00,0.0145
2698.00,0.0145
2697.00,0.0144
2696.00,0.0144
2695.00,0.0144
2694.00,0.0143
2693.00,0.0143
2692.00,0.0143
2691.00,0.0142
2690.00,0.0142
2689.00,0.0142
2688.00,0.0141
2687.00,0.0141
2686.00,0.0140
2685.00,0.0140
2684.00,0.0139
2683.00,0.0139
2682.00,0.0139
2681.00,0.0139
2680.00,0.0138
2679.00,0.0138
2678.00,0.0138
2677.00,0.0137
2676.00,0.0137
2675.00,0.0136
2674.00,0.0136
2673.00,0.0135
2672.00,0.0135
2671.00,0.0135
2670.00,0.0135
2669.00,0.0135
2668.00,0.0135
2667.00,0.0135
2666.00,0.0134
2665.00,0.0134
2664.00,0.0134
2663.00,0.0135
2662.00,0.0135
2661.00,0.0135
2660.00,0.0135
2659.00,0.0135
2658.00,0.0134
2657.00,0.0134
2656.00,0.0134
2655.00,0.0133
2654.00,0.0133
2653.00,0.0132
2652.00,0.0132
2651.00,0.0132
2650.00,0.0131
2649.00,0.0131
2648.00,0.0130
2647.00,0.0130
2646.00,0.0130
2645.00,0.0130
2644.00,0.0130
2643.00,0.0129
2642.00,0.0129
2641.00,0.0128
2640.00,0.0128
2639.00,0.0127
2638.00,0.0126
2637.00,0.0126
2636.00,0.0125
2635.00,0.0125
2634.00,0.0124
2633.00,0.0123
2632.00,0.0122
2631.00,0.0122
2630.00,0.0122
2629.00,0.0122
2628.00,0.0121
2627.00,0.0121
2626.00,0.0120
2625.00,0.0119
2624.00,0.0119
2623.00,0.0118
2622.00,0.0118
2621.00,0.0118
2620.00,0.0118
2619.00,0.0118
2618.00,0.0117
2617.00,0.0117
2616.00,0.0116
2615.00,0.0115
2614.00,0.0115
2613.00,0.0115
2612.00,0.0114
2611.00,0.0114
2610.00,0.0113
2609.00,0.0112
2608.00,0.0112
2607.00,0.0112
2606.00,0.0112
2605.00,0.0112
2604.00,0.0111
2603.00,0.0110
2602.00,0.0110
2601.00,0.0110
2600.00,0.0110
2599.00,0.0110
2598.00,0.0111
2597.00,0.0110
2596.00,0.0109
2595.00,0.0108
2594.00,0.0107
2593.00,0.0106
2592.00,0.0106
2591.00,0.0106
2590.00,0.0106
2589.00,0.0105
2588.00,0.0105
2587.00,0.0104
2586.00,0.0104
2585.00,0.0104
2584.00,0.0104
2583.00,0.0104
2582.00,0.0104
2581.00,0.0104
2580.00,0.0104
2579.00,0.0104
2578.00,0.0104
2577.00,0.0104
2576.00,0.0103
2575.00,0.0103
2574.00,0.0102
2573.00,0.0101
2572.00,0.0100
2571.00,0.0100
2570.00,0.0100
2569.00,0.0099
2568.00,0.0099
2567.00,0.0098
2566.00,0.0097
2565.00,0.0097
2564.00,0.0097
2563.00,0.0098
2562.00,0.0098
2561.00,0.0099
2560.00,0.0099
2559.00,0.0099
2558.00,0.0099
2557.00,0.0098
2556.00,0.0097
2555.00,0.0096
2554.00,0.0096
2553.00,0.0097
2552.00,0.0097
2551.00,0.0097
2550.00,0.0096
2549.00,0.0096
2548.00,0.0096
2547.00,0.0096
2546.00,0.0096
2545.00,0.0096
2544.00,0.0096
2543.00,0.0095
2542.00,0.0094
2541.00,0.0094
2540.00,0.0094
2539.00,0.0094
2538.00,0.0094
2537.00,0.0095
2536.00,0.0095
2535.00,0.0095
2534.00,0.0094
2533.00,0.0094
2532.00,0.0094
2531.00,0.0094
2530.00,0.0094
2529.00,0.0093
2528.00,0.0093
2527.00,0.0094
2526.00,0.0094
2525.00,0.0094
2524.00,0.0094
2523.00,0.0094
2522.00,0.0094
2521.00,0.0093
2520.00,0.0093
2519.00,0.0093
2518.00,0.0092
2517.00,0.0092
2516.00,0.0091
2515.00,0.0091
2514.00,0.0091
2513.00,0.0091
2512.00,0.0091
2511.00,0.0091
2510.00,0.0091
2509.00,0.0091
2508.00,0.0091
2507.00,0.0091
2506.00,0.0091
2505.00,0.0091
2504.00,0.0091
2503.00,0.0091
2502.00,0.0091
2501.00,0.0091
2500.00,0.0091
2499.00,0.0091
2498.00,0.0091
2497.00,0.0091
2496.00,0.0092
2495.00,0.0092
2494.00,0.0092
2493.00,0.0091
2492.00,0.0090
2491.00,0.0090
2490.00,0.0090
2489.00,0.0090
2488.00,0.0090
2487.00,0.0090
2486.00,0.0090
2485.00,0.0090
2484.00,0.0089
2483.00,0.0089
2482.00,0.0089
2481.00,0.0089
2480.00,0.0089
2479.00,0.0088
2478.00,0.0088
2477.00,0.0087
2476.00,0.0087
2475.00,0.0087
2474.00,0.0088
2473.00,0.0088
2472.00,0.0089
2471.00,0.0089
2470.00,0.0089
2469.00,0.0089
2468.00,0.0089
2467.00,0.0088
2466.00,0.0088
2465.00,0.0088
2464.00,0.0088
2463.00,0.0088
2462.00,0.0089
2461.00,0.0089
2460.00,0.0090
2459.00,0.0090
2458.00,0.0090
2457.00,0.0090
2456.00,0.0090
2455.00,0.0090
2454.00,0.0090
2453.00,0.0090
2452.00,0.0090
2451.00,0.0090
2450.00,0.0090
2449.00,0.0090
2448.00,0.0090
2447.00,0.0089
2446.00,0.0088
2445.00,0.0088
2444.00,0.0088
2443.00,0.0088
2442.00,0.0088
2441.00,0.0089
2440.00,0.0089
2439.00,0.0088
2438.00,0.0088
2437.00,0.0087
2436.00,0.0087
2435.00,0.0087
2434.00,0.0088
2433.00,0.0088
2432.00,0.0088
2431.00,0.0088
2430.00,0.0087
2429.00,0.0086
2428.00,0.0086
2427.00,0.0086
2426.00,0.0086
2425.00,0.0087
2424.00,0.0087
2423.00,0.0087
2422.00,0.0086
2421.00,0.0086
2420.00,0.0086
2419.00,0.0086
2418.00,0.0086
2417.00,0.0086
2416.00,0.0086
2415.00,0.0086
2414.00,0.0086
2413.00,0.0086
2412.00,0.0087
2411.00,0.0087
2410.00,0.0088
2409.00,0.0088
2408.00,0.0087
2407.00,0.0087
2406.00,0.0087
2405.00,0.0087
2404.00,0.0086
2403.00,0.0086
2402.00,0.0086
2401.00,0.0086
2400.00,0.0086
2399.00,0.0087
2398.00,0.0087
2397.00,0.0087
2396.00,0.0086
2395.00,0.0086
2394.00,0.0086
2393.00,0.0087
2392.00,0.0087
2391.00,0.0087
2390.00,0.0087
2389.00,0.0087
2388.00,0.0087
2387.00,0.0087
2386.00,0.0087
2385.00,0.0087
2384.00,0.0087
2383.00,0.0087
2382.00,0.0087
2381.00,0.0087
2380.00,0.0087
2379.00,0.0087
2378.00,0.0087
2377.00,0.0087
2376.00,0.0087
2375.00,0.0088
2374.00,0.0088
2373.00,0.0089
2372.00,0.0089
2371.00,0.0089
2370.00,0.0088
2369.00,0.0088
2368.00,0.0087
2367.00,0.0086
2366.00,0.0086
2365.00,0.0087
2364.00,0.0089
2363.00,0.0091
2362.00,0.0092
2361.00,0.0093
2360.00,0.0093
2359.00,0.0092
2358.00,0.0091
2357.00,0.0092
2356.00,0.0092
2355.00,0.0093
2354.00,0.0093
2353.00,0.0093
2352.00,0.0092
2351.00,0.0092
2350.00,0.0092
2349.00,0.0093
2348.00,0.0096
2347.00,0.0098
2346.00,0.0099
2345.00,0.0098
2344.00,0.0097
2343.00,0.0097
2342.00,0.0098
2341.00,0.0099
2340.00,0.0100
2339.00,0.0100
2338.00,0.0100
2337.00,0.0101
2336.00,0.0101
2335.00,0.0101
2334.00,0.0101
2333.00,0.0101
2332.00,0.0100
2331.00,0.0099
2330.00,0.0099
2329.00,0.0100
2328.00,0.0103
2327.00,0.0107
2326.00,0.0112
2325.00,0.0116
2324.00,0.0118
2323.00,0.0117
2322.00,0.0115
2321.00,0.0112
2320.00,0.0111
2319.00,0.0110
2318.00,0.0109
2317.00,0.0109
2316.00,0.0108
2315.00,0.0108
2314.00,0.0107
2313.00,0.0106
2312.00,0.0106
2311.00,0.0106
2310.00,0.0106
2309.00,0.0106
2308.00,0.0105
2307.00,0.0105
2306.00,0.0104
2305.00,0.0103
2304.00,0.0104
2303.00,0.0105
2302.00,0.0106
2301.00,0.0107
2300.00,0.0107
2299.00,0.0107
2298.00,0.0108
2297.00,0.0109
2296.00,0.0110
2295.00,0.0111
2294.00,0.0112
2293.00,0.0112
2292.00,0.0112
2291.00,0.0112
2290.00,0.0113
2289.00,0.0114
2288.00,0.0115
2287.00,0.0115
2286.00,0.0115
2285.00,0.0116
2284.00,0.0116
2283.00,0.0117
2282.00,0.0117
2281.00,0.0117
2280.00,0.0116
2279.00,0.0115
2278.00,0.0113
2277.00,0.0111
2276.00,0.0110
2275.00,0.0110
2274.00,0.0109
2273.00,0.0110
2272.00,0.0110
2271.00,0.0111
2270.00,0.0112
2269.00,0.0112
2268.00,0.0111
2267.00,0.0109
2266.00,0.0108
2265.00,0.0107
2264.00,0.0106
2263.00,0.0106
2262.00,0.0105
2261.00,0.0105
2260.00,0.0106
2259.00,0.0106
2258.00,0.0107
2257.00,0.0108
2256.00,0.0108
2255.00,0.0107
2254.00,0.0105
2253.00,0.0104
2252.00,0.0104
2251.00,0.0104
2250.00,0.0104
2249.00,0.0105
2248.00,0.0105
2247.00,0.0105
2246.00,0.0105
2245.00,0.0105
2244.00,0.0104
2243.00,0.0104
2242.00,0.0104
2241.00,0.0105
2240.00,0.0105
2239.00,0.0104
2238.00,0.0104
2237.00,0.0103
2236.00,0.0102
2235.00,0.0102
2234.00,0.0102
2233.00,0.0102
2232.00,0.0104
2231.00,0.0106
2230.00,0.0107
2229.00,0.0107
2228.00,0.0108
2227.00,0.0108
2226.00,0.0107
2225.00,0.0106
2224.00,0.0105
2223.00,0.0104
2222.00,0.0104
2221.00,0.0105
2220.00,0.0106
2219.00,0.0108
2218.00,0.0109
2217.00,0.0109
2216.00,0.0110
2215.00,0.0111
2214.00,0.0110
2213.00,0.0109
2212.00,0.0107
2211.00,0.0106
2210.00,0.0105
2209.00,0.0104
2208.00,0.0104
2207.00,0.0105
2206.00,0.0106
2205.00,0.0107
2204.00,0.0107
2203.00,0.0106
2202.00,0.0104
2201.00,0.0103
2200.00,0.0103
2199.00,0.0104
2198.00,0.0105
2197.00,0.0105
2196.00,0.0104
2195.00,0.0103
2194.00,0.0101
2193.00,0.0100
2192.00,0.0099
2191.00,0.0100
2190.00,0.0101
2189.00,0.0104
2188.00,0.0106
2187.00,0.0106
2186.00,0.0106
2185.00,0.0105
2184.00,0.0104
2183.00,0.0102
2182.00,0.0101
2181.00,0.0101
2180.00,0.0102
2179.00,0.0102
2178.00,0.0101
2177.00,0.0101
2176.00,0.0100
2175.00,0.0099
2174.00,0.0098
2173.00,0.0099
2172.00,0.0100
2171.00,0.0101
2170.00,0.0103
2169.00,0.0106
2168.00,0.0108
2167.00,0.0108
2166.00,0.0106
2165.00,0.0104
2164.00,0.0103
2163.00,0.0104
2162.00,0.0104
2161.00,0.0100
2160.00,0.0089
2159.00,0.0072
2158.00,0.0056
2157.00,0.0049
2156.00,0.0051
2155.00,0.0057
2154.00,0.0063
2153.00,0.0068
2152.00,0.0071
2151.00,0.0074
2150.00,0.0077
2149.00,0.0079
2148.00,0.0080
2147.00,0.0079
2146.00,0.0078
2145.00,0.0078
2144.00,0.0079
2143.00,0.0080
2142.00,0.0080
2141.00,0.0081
2140.00,0.0081
2139.00,0.0082
2138.00,0.0082
2137.00,0.0083
2136.00,0.0083
2135.00,0.0083
2134.00,0.0083
2133.00,0.0084
2132.00,0.0086
2131.00,0.0088
2130.00,0.0091
2129.00,0.0094
2128.00,0.0097
2127.00,0.0100
2126.00,0.0102
2125.00,0.0103
2124.00,0.0104
2123.00,0.0105
2122.00,0.0106
2121.00,0.0107
2120.00,0.0107
2119.00,0.0107
2118.00,0.0108
2117.00,0.0111
2116.00,0.0114
2115.00,0.0117
2114.00,0.0117
2113.00,0.0116
2112.00,0.0115
2111.00,0.0114
2110.00,0.0115
2109.00,0.0116
2108.00,0.0117
2107.00,0.0117
2106.00,0.0117
2105.00,0.0117
2104.00,0.0117
2103.00,0.0116
2102.00,0.0115
2101.00,0.0114
2100.00,0.0114
2099.00,0.0115
2098.00,0.0115
2097.00,0.0114
2096.00,0.0112
2095.00,0.0110
2094.00,0.0107
2093.00,0.0106
2092.00,0.0107
2091.00,0.0108
2090.00,0.0109
2089.00,0.0110
2088.00,0.0111
2087.00,0.0111
2086.00,0.0111
2085.00,0.0112
2084.00,0.0113
2083.00,0.0113
2082.00,0.0112
2081.00,0.0111
2080.00,0.0111
2079.00,0.0111
2078.00,0.0111
2077.00,0.0111
2076.00,0.0111
2075.00,0.0110
2074.00,0.0109
2073.00,0.0109
2072.00,0.0109
2071.00,0.0109
2070.00,0.0108
2069.00,0.0107
2068.00,0.0106
2067.00,0.0104
2066.00,0.0102
2065.00,0.0100
2064.00,0.0099
2063.00,0.0098
2062.00,0.0096
2061.00,0.0095
2060.00,0.0095
2059.00,0.0096
2058.00,0.0097
2057.00,0.0097
2056.00,0.0095
2055.00,0.0094
2054.00,0.0095
2053.00,0.0099
2052.00,0.0104
2051.00,0.0106
2050.00,0.0104
2049.00,0.0100
2048.00,0.0095
2047.00,0.0091
2046.00,0.0087
2045.00,0.0084
2044.00,0.0083
2043.00,0.0083
2042.00,0.0083
2041.00,0.0084
2040.00,0.0085
2039.00,0.0085
2038.00,0.0084
2037.00,0.0083
2036.00,0.0081
2035.00,0.0078
2034.00,0.0075
2033.00,0.0074
2032.00,0.0074
2031.00,0.0074
2030.00,0.0072
2029.00,0.0070
2028.00,0.0067
2027.00,0.0065
2026.00,0.0063
2025.00,0.0063
2024.00,0.0064
2023.00,0.0066
2022.00,0.0067
2021.00,0.0068
2020.00,0.0068
2019.00,0.0066
2018.00,0.0063
2017.00,0.0063
2016.00,0.0064
2015.00,0.0065
2014.00,0.0066
2013.00,0.0067
2012.00,0.0068
2011.00,0.0069
2010.00,0.0068
2009.00,0.0067
2008.00,0.0065
2007.00,0.0062
2006.00,0.0059
2005.00,0.0059
2004.00,0.0060
2003.00,0.0061
2002.00,0.0063
2001.00,0.0065
2000.00,0.0068
1999.00,0.0071
1998.00,0.0072
1997.00,0.0072
1996.00,0.0074
1995.00,0.0075
1994.00,0.0075
1993.00,0.0076
1992.00,0.0076
1991.00,0.0075
1990.00,0.0074
1989.00,0.0074
1988.00,0.0074
1987.00,0.0074
1986.00,0.0074
1985.00,0.0075
1984.00,0.0078
1983.00,0.0082
1982.00,0.0086
1981.00,0.0087
1980.00,0.0086
1979.00,0.0081
1978.00,0.0075
1977.00,0.0069
1976.00,0.0065
1975.00,0.0062
1974.00,0.0060
1973.00,0.0059
1972.00,0.0060
1971.00,0.0060
1970.00,0.0059
1969.00,0.0059
1968.00,0.0059
1967.00,0.0059
1966.00,0.0060
1965.00,0.0060
1964.00,0.0061
1963.00,0.0061
1962.00,0.0061
1961.00,0.0062
1960.00,0.0062
1959.00,0.0061
1958.00,0.0060
1957.00,0.0060
1956.00,0.0063
1955.00,0.0064
1954.00,0.0062
1953.00,0.0061
1952.00,0.0060
1951.00,0.0059
1950.00,0.0060
1949.00,0.0061
1948.00,0.0062
1947.00,0.0062
1946.00,0.0062
1945.00,0.0062
1944.00,0.0063
1943.00,0.0063
1942.00,0.0062
1941.00,0.0063
1940.00,0.0065
1939.00,0.0067
1938.00,0.0066
1937.00,0.0065
1936.00,0.0065
1935.00,0.0066
1934.00,0.0067
1933.00,0.0067
1932.00,0.0067
1931.00,0.0067
1930.00,0.0066
1929.00,0.0066
1928.00,0.0067
1927.00,0.0067
1926.00,0.0067
1925.00,0.0068
1924.00,0.0067
1923.00,0.0067
1922.00,0.0067
1921.00,0.0069
1920.00,0.0072
1919.00,0.0073
1918.00,0.0071
1917.00,0.0069
1916.00,0.0069
1915.00,0.0068
1914.00,0.0068
1913.00,0.0068
1912.00,0.0069
1911.00,0.0069
1910.00,0.0068
1909.00,0.0068
1908.00,0.0067
1907.00,0.0067
1906.00,0.0066
1905.00,0.0066
1904.00,0.0065
1903.00,0.0065
1902.00,0.0065
1901.00,0.0066
1900.00,0.0067
1899.00,0.0067
1898.00,0.0067
1897.00,0.0068
1896.00,0.0069
1895.00,0.0068
1894.00,0.0066
1893.00,0.0065
1892.00,0.0065
1891.00,0.0065
1890.00,0.0064
1889.00,0.0063
1888.00,0.0063
1887.00,0.0063
1886.00,0.0063
1885.00,0.0063
1884.00,0.0063
1883.00,0.0063
1882.00,0.0063
1881.00,0.0063
1880.00,0.0064
1879.00,0.0063
1878.00,0.0062
1877.00,0.0061
1876.00,0.0062
1875.00,0.0062
1874.00,0.0063
1873.00,0.0064
1872.00,0.0065
1871.00,0.0065
1870.00,0.0066
1869.00,0.0065
1868.00,0.0064
1867.00,0.0063
1866.00,0.0062
1865.00,0.0062
1864.00,0.0062
1863.00,0.0061
1862.00,0.0060
1861.00,0.0060
1860.00,0.0060
1859.00,0.0061
1858.00,0.0061
1857.00,0.0062
1856.00,0.0062
1855.00,0.0061
1854.00,0.0061
1853.00,0.0061
1852.00,0.0061
1851.00,0.0061
1850.00,0.0061
1849.00,0.0061
1848.00,0.0062
1847.00,0.0063
1846.00,0.0065
1845.00,0.0065
1844.00,0.0063
1843.00,0.0060
1842.00,0.0058
1841.00,0.0059
1840.00,0.0061
1839.00,0.0063
1838.00,0.0063
1837.00,0.0062
1836.00,0.0061
1835.00,0.0060
1834.00,0.0059
1833.00,0.0061
1832.00,0.0063
1831.00,0.0065
1830.00,0.0064
1829.00,0.0063
1828.00,0.0062
1827.00,0.0062
1826.00,0.0063
1825.00,0.0062
1824.00,0.0061
1823.00,0.0061
1822.00,0.0062
1821.00,0.0062
1820.00,0.0063
1819.00,0.0062
1818.00,0.0061
1817.00,0.0059
1816.00,0.0059
1815.00,0.0059
1814.00,0.0060
1813.00,0.0061
1812.00,0.0062
1811.00,0.0062
1810.00,0.0062
1809.00,0.0062
1808.00,0.0061
1807.00,0.0061
1806.00,0.0061
1805.00,0.0061
1804.00,0.0061
1803.00,0.0061
1802.00,0.0062
1801.00,0.0062
1800.00,0.0063
1799.00,0.0063
1798.00,0.0062
1797.00,0.0062
1796.00,0.0062
1795.00,0.0063
1794.00,0.0064
1793.00,0.0065
1792.00,0.0063
1791.00,0.0061
1790.00,0.0060
1789.00,0.0060
1788.00,0.0061
1787.00,0.0062
1786.00,0.0062
1785.00,0.0061
1784.00,0.0061
1783.00,0.0061
1782.00,0.0062
1781.00,0.0062
1780.00,0.0061
1779.00,0.0060
1778.00,0.0060
1777.00,0.0061
1776.00,0.0061
1775.00,0.0063
1774.00,0.0065
1773.00,0.0066
1772.00,0.0065
1771.00,0.0063
1770.00,0.0061
1769.00,0.0061
1768.00,0.0062
1767.00,0.0061
1766.00,0.0060
1765.00,0.0060
1764.00,0.0062
1763.00,0.0063
1762.00,0.0063
1761.00,0.0062
1760.00,0.0063
1759.00,0.0065
1758.00,0.0068
1757.00,0.0071
1756.00,0.0073
1755.00,0.0075
1754.00,0.0079
1753.00,0.0083
1752.00,0.0087
1751.00,0.0091
1750.00,0.0094
1749.00,0.0098
1748.00,0.0102
1747.00,0.0106
1746.00,0.0108
1745.00,0.0110
1744.00,0.0113
1743.00,0.0116
1742.00,0.0119
1741.00,0.0123
1740.00,0.0127
1739.00,0.0128
1738.00,0.0128
1737.00,0.0131
1736.00,0.0136
1735.00,0.0140
1734.00,0.0140
1733.00,0.0139
1732.00,0.0141
1731.00,0.0145
1730.00,0.0149
1729.00,0.0152
1728.00,0.0155
1727.00,0.0158
1726.00,0.0161
1725.00,0.0165
1724.00,0.0169
1723.00,0.0173
1722.00,0.0176
1721.00,0.0180
1720.00,0.0186
1719.00,0.0192
1718.00,0.0198
1717.00,0.0204
1716.00,0.0210
1715.00,0.0216
1714.00,0.0221
1713.00,0.0226
1712.00,0.0232
1711.00,0.0237
1710.00,0.0243
1709.00,0.0250
1708.00,0.0259
1707.00,0.0269
1706.00,0.0279
1705.00,0.0289
1704.00,0.0298
1703.00,0.0307
1702.00,0.0319
1701.00,0.0336
1700.00,0.0356
1699.00,0.0374
1698.00,0.0391
1697.00,0.0410
1696.00,0.0432
1695.00,0.0452
1694.00,0.0471
1693.00,0.0489
1692.00,0.0508
1691.00,0.0528
1690.00,0.0549
1689.00,0.0571
1688.00,0.0591
1687.00,0.0609
1686.00,0.0629
1685.00,0.0657
1684.00,0.0695
1683.00,0.0729
1682.00,0.0752
1681.00,0.0772
1680.00,0.0791
1679.00,0.0809
1678.00,0.0826
1677.00,0.0845
1676.00,0.0871
1675.00,0.0902
1674.00,0.0930
1673.00,0.0954
1672.00,0.0975
1671.00,0.0998
1670.00,0.1027
1669.00,0.1060
1668.00,0.1091
1667.00,0.1116
1666.00,0.1135
1665.00,0.1155
1664.00,0.1179
1663.00,0.1211
1662.00,0.1246
1661.00,0.1277
1660.00,0.1304
1659.00,0.1327
1658.00,0.1346
1657.00,0.1359
1656.00,0.1367
1655.00,0.1376
1654.00,0.1401
1653.00,0.1453
1652.00,0.1502
1651.00,0.1525
1650.00,0.1530
1649.00,0.1529
1648.00,0.1534
1647.00,0.1549
1646.00,0.1570
1645.00,0.1586
1644.00,0.1594
1643.00,0.1596
1642.00,0.1595
1641.00,0.1594
1640.00,0.1593
1639.00,0.1592
1638.00,0.1589
1637.00,0.1589
1636.00,0.1598
1635.00,0.1611
1634.00,0.1616
1633.00,0.1610
1632.00,0.1597
1631.00,0.1582
1630.00,0.1566
1629.00,0.1551
1628.00,0.1537
1627.00,0.1524
1626.00,0.1508
1625.00,0.1490
1624.00,0.1470
1623.00,0.1451
1622.00,0.1432
1621.00,0.1409
1620.00,0.1382
1619.00,0.1352
1618.00,0.1321
1617.00,0.1291
1616.00,0.1263
1615.00,0.1237
1614.00,0.1209
1613.00,0.1179
1612.00,0.1147
1611.00,0.1116
1610.00,0.1086
1609.00,0.1058
1608.00,0.1030
1607.00,0.1004
1606.00,0.0979
1605.00,0.0955
1604.00,0.0930
1603.00,0.0907
1602.00,0.0884
1601.00,0.0862
1600.00,0.0841
1599.00,0.0821
1598.00,0.0801
1597.00,0.0782
1596.00,0.0764
1595.00,0.0747
1594.00,0.0730
1593.00,0.0713
1592.00,0.0697
1591.00,0.0682
1590.00,0.0669
1589.00,0.0656
1588.00,0.0644
1587.00,0.0633
1586.00,0.0623
1585.00,0.0614
1584.00,0.0605
1583.00,0.0598
1582.00,0.0592
1581.00,0.0586
1580.00,0.0580
1579.00,0.0575
1578.00,0.0572
1577.00,0.0571
1576.00,0.0572
1575.00,0.0573
1574.00,0.0573
1573.00,0.0572
1572.00,0.0571
1571.00,0.0571
1570.00,0.0574
1569.00,0.0580
1568.00,0.0585
1567.00,0.0589
1566.00,0.0593
1565.00,0.0596
1564.00,0.0599
1563.00,0.0601
1562.00,0.0601
1561.00,0.0601
1560.00,0.0609
1559.00,0.0633
1558.00,0.0659
1557.00,0.0671
1556.00,0.0676
1555.00,0.0681
1554.00,0.0686
1553.00,0.0692
1552.00,0.0696
1551.00,0.0700
1550.00,0.0705
1549.00,0.0709
1548.00,0.0712
1547.00,0.0712
1546.00,0.0710
1545.00,0.0708
1544.00,0.0707
1543.00,0.0706
1542.00,0.0705
1541.00,0.0705
1540.00,0.0704
1539.00,0.0698
1538.00,0.0689
1537.00,0.0679
1536.00,0.0668
1535.00,0.0656
1534.00,0.0645
1533.00,0.0634
1532.00,0.0624
1531.00,0.0613
1530.00,0.0603
1529.00,0.0590
1528.00,0.0577
1527.00,0.0565
1526.00,0.0554
1525.00,0.0545
1524.00,0.0536
1523.00,0.0526
1522.00,0.0515
1521.00,0.0505
1520.00,0.0495
1519.00,0.0487
1518.00,0.0478
1517.00,0.0466
1516.00,0.0452
1515.00,0.0438
1514.00,0.0423
1513.00,0.0407
1512.00,0.0390
1511.00,0.0374
1510.00,0.0358
1509.00,0.0345
1508.00,0.0332
1507.00,0.0320
1506.00,0.0307
1505.00,0.0293
1504.00,0.0281
1503.00,0.0269
1502.00,0.0258
1501.00,0.0247
1500.00,0.0236
1499.00,0.0227
1498.00,0.0218
1497.00,0.0209
1496.00,0.0201
1495.00,0.0194
1494.00,0.0188
1493.00,0.0183
1492.00,0.0178
1491.00,0.0173
1490.00,0.0168
1489.00,0.0164
1488.00,0.0160
1487.00,0.0157
1486.00,0.0154
1485.00,0.0152
1484.00,0.0150
1483.00,0.0150
1482.00,0.0151
1481.00,0.0153
1480.00,0.0155
1479.00,0.0158
1478.00,0.0162
1477.00,0.0166
1476.00,0.0171
1475.00,0.0178
1474.00,0.0187
1473.00,0.0198
1472.00,0.0209
1471.00,0.0217
1470.00,0.0223
1469.00,0.0228
1468.00,0.0231
1467.00,0.0234
1466.00,0.0238
1465.00,0.0243
1464.00,0.0249
1463.00,0.0254
1462.00,0.0258
1461.00,0.0262
1460.00,0.0264
1459.00,0.0267
1458.00,0.0273
1457.00,0.0283
1456.00,0.0292
1455.00,0.0297
1454.00,0.0298
1453.00,0.0298
1452.00,0.0297
1451.00,0.0296
1450.00,0.0295
1449.00,0.0295
1448.00,0.0295
1447.00,0.0295
1446.00,0.0295
1445.00,0.0294
1444.00,0.0294
1443.00,0.0293
1442.00,0.0293
1441.00,0.0292
1440.00,0.0292
1439.00,0.0290
1438.00,0.0289
1437.00,0.0290
1436.00,0.0293
1435.00,0.0296
1434.00,0.0297
1433.00,0.0298
1432.00,0.0299
1431.00,0.0301
1430.00,0.0304
1429.00,0.0307
1428.00,0.0310
1427.00,0.0312
1426.00,0.0314
1425.00,0.0317
1424.00,0.0320
1423.00,0.0323
1422.00,0.0324
1421.00,0.0325
1420.00,0.0326
1419.00,0.0329
1418.00,0.0333
1417.00,0.0336
1416.00,0.0338
1415.00,0.0338
1414.00,0.0336
1413.00,0.0334
1412.00,0.0332
1411.00,0.0330
1410.00,0.0328
1409.00,0.0325
1408.00,0.0322
1407.00,0.0318
1406.00,0.0315
1405.00,0.0312
1404.00,0.0309
1403.00,0.0306
1402.00,0.0301
1401.00,0.0295
1400.00,0.0289
1399.00,0.0283
1398.00,0.0278
1397.00,0.0273
1396.00,0.0267
1395.00,0.0262
1394.00,0.0257
1393.00,0.0253
1392.00,0.0250
1391.00,0.0247
1390.00,0.0243
1389.00,0.0240
1388.00,0.0239
1387.00,0.0239
1386.00,0.0240
1385.00,0.0242
1384.00,0.0243
1383.00,0.0243
1382.00,0.0244
1381.00,0.0244
1380.00,0.0245
1379.00,0.0245
1378.00,0.0244
1377.00,0.0243
1376.00,0.0241
1375.00,0.0239
1374.00,0.0236
1373.00,0.0233
1372.00,0.0230
1371.00,0.0226
1370.00,0.0222
1369.00,0.0217
1368.00,0.0211
1367.00,0.0205
1366.00,0.0199
1365.00,0.0192
1364.00,0.0185
1363.00,0.0178
1362.00,0.0174
1361.00,0.0171
1360.00,0.0168
1359.00,0.0165
1358.00,0.0162
1357.00,0.0159
1356.00,0.0156
1355.00,0.0152
1354.00,0.0149
1353.00,0.0146
1352.00,0.0142
1351.00,0.0138
1350.00,0.0133
1349.00,0.0129
1348.00,0.0124
1347.00,0.0120
1346.00,0.0116
1345.00,0.0111
1344.00,0.0106
1343.00,0.0102
1342.00,0.0097
1341.00,0.0092
1340.00,0.0087
1339.00,0.0084
1338.00,0.0082
1337.00,0.0080
1336.00,0.0078
1335.00,0.0075
1334.00,0.0072
1333.00,0.0069
1332.00,0.0067
1331.00,0.0065
1330.00,0.0064
1329.00,0.0063
1328.00,0.0063
1327.00,0.0063
1326.00,0.0064
1325.00,0.0065
1324.00,0.0065
1323.00,0.0066
1322.00,0.0068
1321.00,0.0069
1320.00,0.0070
1319.00,0.0071
1318.00,0.0071
1317.00,0.0072
1316.00,0.0073
1315.00,0.0073
1314.00,0.0074
1313.00,0.0074
1312.00,0.0074
1311.00,0.0075
1310.00,0.0075
1309.00,0.0076
1308.00,0.0077
1307.00,0.0078
1306.00,0.0080
1305.00,0.0082
1304.00,0.0085
1303.00,0.0088
1302.00,0.0092
1301.00,0.0097
1300.00,0.0102
1299.00,0.0109
1298.00,0.0116
1297.00,0.0123
1296.00,0.0132
1295.00,0.0142
1294.00,0.0152
1293.00,0.0163
1292.00,0.0175
1291.00,0.0188
1290.00,0.0203
1289.00,0.0218
1288.00,0.0235
1287.00,0.0253
1286.00,0.0272
1285.00,0.0292
1284.00,0.0312
1283.00,0.0333
1282.00,0.0354
1281.00,0.0376
1280.00,0.0399
1279.00,0.0422
1278.00,0.0446
1277.00,0.0470
1276.00,0.0494
1275.00,0.0519
1274.00,0.0544
1273.00,0.0569
1272.00,0.0594
1271.00,0.0618
1270.00,0.0642
1269.00,0.0665
1268.00,0.0688
1267.00,0.0710
1266.00,0.0731
1265.00,0.0752
1264.00,0.0772
1263.00,0.0791
1262.00,0.0810
1261.00,0.0827
1260.00,0.0843
1259.00,0.0859
1258.00,0.0873
1257.00,0.0887
1256.00,0.0901
1255.00,0.0914
1254.00,0.0925
1253.00,0.0936
1252.00,0.0946
1251.00,0.0956
1250.00,0.0965
1249.00,0.0973
1248.00,0.0982
1247.00,0.0989
1246.00,0.0997
1245.00,0.1005
1244.00,0.1013
1243.00,0.1021
1242.00,0.1028
1241.00,0.1036
1240.00,0.1045
1239.00,0.1054
1238.00,0.1064
1237.00,0.1074
1236.00,0.1084
1235.00,0.1094
1234.00,0.1104
1233.00,0.1114
1232.00,0.1124
1231.00,0.1133
1230.00,0.1143
1229.00,0.1152
1228.00,0.1160
1227.00,0.1168
1226.00,0.1175
1225.00,0.1181
1224.00,0.1187
1223.00,0.1192
1222.00,0.1196
1221.00,0.1198
1220.00,0.1199
1219.00,0.1197
1218.00,0.1193
1217.00,0.1187
1216.00,0.1179
1215.00,0.1169
1214.00,0.1157
1213.00,0.1143
1212.00,0.1127
1211.00,0.1109
1210.00,0.1089
1209.00,0.1068
1208.00,0.1045
1207.00,0.1021
1206.00,0.0995
1205.00,0.0969
1204.00,0.0942
1203.00,0.0915
1202.00,0.0888
1201.00,0.0862
1200.00,0.0838
1199.00,0.0814
1198.00,0.0793
1197.00,0.0774
1196.00,0.0757
1195.00,0.0741
1194.00,0.0728
1193.00,0.0717
1192.00,0.0707
1191.00,0.0697
1190.00,0.0688
1189.00,0.0679
1188.00,0.0669
1187.00,0.0660
1186.00,0.0651
1185.00,0.0644
1184.00,0.0638
1183.00,0.0633
1182.00,0.0630
1181.00,0.0629
1180.00,0.0630
1179.00,0.0633
1178.00,0.0637
1177.00,0.0643
1176.00,0.0651
1175.00,0.0661
1174.00,0.0673
1173.00,0.0687
1172.00,0.0703
1171.00,0.0721
1170.00,0.0740
1169.00,0.0762
1168.00,0.0784
1167.00,0.0808
1166.00,0.0832
1165.00,0.0855
1164.00,0.0879
1163.00,0.0902
1162.00,0.0924
1161.00,0.0944
1160.00,0.0962
1159.00,0.0978
1158.00,0.0991
1157.00,0.1003
1156.00,0.1012
1155.00,0.1018
1154.00,0.1023
1153.00,0.1026
1152.00,0.1028
1151.00,0.1026
1150.00,0.1023
1149.00,0.1017
1148.00,0.1009
1147.00,0.0999
1146.00,0.0988
1145.00,0.0975
1144.00,0.0963
1143.00,0.0950
1142.00,0.0938
1141.00,0.0927
1140.00,0.0918
1139.00,0.0911
1138.00,0.0905
1137.00,0.0903
1136.00,0.0904
1135.00,0.0908
1134.00,0.0916
1133.00,0.0926
1132.00,0.0937
1131.00,0.0950
1130.00,0.0962
1129.00,0.0975
1128.00,0.0986
1127.00,0.0996
1126.00,0.1002
1125.00,0.1005
1124.00,0.1006
1123.00,0.1005
1122.00,0.1003
1121.00,0.0999
1120.00,0.0995
1119.00,0.0991
1118.00,0.0985
1117.00,0.0980
1116.00,0.0974
1115.00,0.0968
1114.00,0.0963
1113.00,0.0958
1112.00,0.0954
1111.00,0.0950
1110.00,0.0948
1109.00,0.0946
1108.00,0.0948
1107.00,0.0951
1106.00,0.0956
1105.00,0.0964
1104.00,0.0974
1103.00,0.0986
1102.00,0.0999
1101.00,0.1015
1100.00,0.1032
1099.00,0.1051
1098.00,0.1070
1097.00,0.1091
1096.00,0.1112
1095.00,0.1133
1094.00,0.1153
1093.00,0.1175
1092.00,0.1198
1091.00,0.1221
1090.00,0.1246
1089.00,0.1273
1088.00,0.1300
1087.00,0.1329
1086.00,0.1359
1085.00,0.1391
1084.00,0.1423
1083.00,0.1457
1082.00,0.1492
1081.00,0.1529
1080.00,0.1567
1079.00,0.1606
1078.00,0.1642
1077.00,0.1678
1076.00,0.1711
1075.00,0.1740
1074.00,0.1767
1073.00,0.1790
1072.00,0.1811
1071.00,0.1827
1070.00,0.1838
1069.00,0.1847
1068.00,0.1852
1067.00,0.1852
1066.00,0.1848
1065.00,0.1840
1064.00,0.1830
1063.00,0.1818
1062.00,0.1804
1061.00,0.1791
1060.00,0.1780
1059.00,0.1771
1058.00,0.1765
1057.00,0.1763
1056.00,0.1765
1055.00,0.1769
1054.00,0.1776
1053.00,0.1787
1052.00,0.1801
1051.00,0.1818
1050.00,0.1838
1049.00,0.1861
1048.00,0.1886
1047.00,0.1911
1046.00,0.1936
1045.00,0.1960
1044.00,0.1982
1043.00,0.2003
1042.00,0.2021
1041.00,0.2035
1040.00,0.2046
1039.00,0.2054
1038.00,0.2058
1037.00,0.2063
1036.00,0.2067
1035.00,0.2071
1034.00,0.2075
1033.00,0.2081
1032.00,0.2088
1031.00,0.2096
1030.00,0.2101
1029.00,0.2105
1028.00,0.2105
1027.00,0.2099
1026.00,0.2088
1025.00,0.2073
1024.00,0.2054
1023.00,0.2031
1022.00,0.2004
1021.00,0.1974
1020.00,0.1942
1019.00,0.1909
1018.00,0.1875
1017.00,0.1841
1016.00,0.1805
1015.00,0.1769
1014.00,0.1733
1013.00,0.1699
1012.00,0.1668
1011.00,0.1639
1010.00,0.1611
1009.00,0.1587
1008.00,0.1564
1007.00,0.1542
1006.00,0.1521
1005.00,0.1498
1004.00,0.1473
1003.00,0.1445
1002.00,0.1411
1001.00,0.1373
1000.00,0.1332
999.00,0.1289
998.00,0.1245
997.00,0.1202
996.00,0.1160
995.00,0.1121
994.00,0.1083
993.00,0.1047
992.00,0.1012
991.00,0.0978
990.00,0.0945
989.00,0.0912
988.00,0.0881
987.00,0.0849
986.00,0.0818
985.00,0.0787
984.00,0.0759
983.00,0.0732
982.00,0.0707
981.00,0.0685
980.00,0.0666
979.00,0.0650
978.00,0.0635
977.00,0.0622
976.00,0.0609
975.00,0.0596
974.00,0.0582
973.00,0.0568
972.00,0.0554
971.00,0.0539
970.00,0.0521
969.00,0.0501
968.00,0.0477
967.00,0.0449
966.00,0.0418
965.00,0.0386
964.00,0.0352
963.00,0.0318
962.00,0.0286
961.00,0.0256
960.00,0.0230
959.00,0.0207
958.00,0.0187
957.00,0.0171
956.00,0.0156
955.00,0.0144
954.00,0.0134
953.00,0.0126
952.00,0.0120
951.00,0.0117
950.00,0.0116
949.00,0.0117
948.00,0.0120
947.00,0.0126
946.00,0.0133
945.00,0.0143
944.00,0.0155
943.00,0.0170
942.00,0.0189
941.00,0.0212
940.00,0.0238
939.00,0.0266
938.00,0.0297
937.00,0.0327
936.00,0.0356
935.00,0.0382
934.00,0.0405
933.00,0.0423
932.00,0.0436
931.00,0.0443
930.00,0.0447
929.00,0.0447
928.00,0.0443
927.00,0.0436
926.00,0.0426
925.00,0.0414
924.00,0.0402
923.00,0.0389
922.00,0.0375
921.00,0.0361
920.00,0.0348
919.00,0.0334
918.00,0.0321
917.00,0.0307
916.00,0.0293
915.00,0.0279
914.00,0.0265
913.00,0.0251
912.00,0.0238
911.00,0.0225
910.00,0.0214
909.00,0.0204
908.00,0.0194
907.00,0.0185
906.00,0.0177
905.00,0.0170
904.00,0.0164
903.00,0.0158
902.00,0.0153
901.00,0.0149
900.00,0.0145
899.00,0.0142
898.00,0.0139
897.00,0.0137
896.00,0.0137
895.00,0.0137
894.00,0.0138
893.00,0.0139
892.00,0.0141
891.00,0.0142
890.00,0.0143
889.00,0.0142
888.00,0.0140
887.00,0.0135
886.00,0.0128
885.00,0.0120
884.00,0.0110
883.00,0.0097
882.00,0.0085
881.00,0.0074
880.00,0.0065
879.00,0.0061
878.00,0.0059
877.00,0.0059
876.00,0.0061
875.00,0.0064
874.00,0.0068
873.00,0.0072
872.00,0.0075
871.00,0.0075
870.00,0.0072
869.00,0.0068
868.00,0.0064
867.00,0.0061
866.00,0.0059
865.00,0.0060
864.00,0.0062
863.00,0.0067
862.00,0.0074
861.00,0.0083
860.00,0.0093
859.00,0.0104
858.00,0.0118
857.00,0.0135
856.00,0.0154
855.00,0.0173
854.00,0.0192
853.00,0.0212
852.00,0.0232
851.00,0.0252
850.00,0.0269
849.00,0.0285
848.00,0.0298
847.00,0.0307
846.00,0.0313
845.00,0.0315
844.00,0.0312
843.00,0.0305
842.00,0.0297
841.00,0.0287
840.00,0.0278
839.00,0.0270
838.00,0.0262
837.00,0.0254
836.00,0.0247
835.00,0.0239
834.00,0.0231
833.00,0.0222
832.00,0.0213
831.00,0.0204
830.00,0.0194
829.00,0.0184
828.00,0.0174
827.00,0.0163
826.00,0.0154
825.00,0.0146
824.00,0.0140
823.00,0.0135
822.00,0.0130
821.00,0.0124
820.00,0.0118
819.00,0.0113
818.00,0.0110
817.00,0.0108
816.00,0.0106
815.00,0.0105
814.00,0.0105
813.00,0.0106
812.00,0.0107
811.00,0.0109
810.00,0.0111
809.00,0.0113
808.00,0.0115
807.00,0.0115
806.00,0.0114
805.00,0.0113
804.00,0.0112
803.00,0.0110
802.00,0.0107
801.00,0.0104
800.00,0.0100
799.00,0.0096
798.00,0.0093
797.00,0.0089
796.00,0.0085
795.00,0.0080
794.00,0.0075
793.00,0.0071
792.00,0.0069
791.00,0.0067
790.00,0.0066
789.00,0.0065
788.00,0.0066
787.00,0.0067
786.00,0.0069
785.00,0.0071
784.00,0.0072
783.00,0.0075
782.00,0.0078
781.00,0.0083
780.00,0.0089
779.00,0.0096
778.00,0.0102
777.00,0.0108
776.00,0.0112
775.00,0.0115
774.00,0.0116
773.00,0.0116
772.00,0.0116
771.00,0.0114
770.00,0.0110
769.00,0.0105
768.00,0.0099
767.00,0.0093
766.00,0.0087
765.00,0.0082
764.00,0.0077
763.00,0.0074
762.00,0.0071
761.00,0.0069
760.00,0.0067
759.00,0.0065
758.00,0.0063
757.00,0.0063
756.00,0.0064
755.00,0.0067
754.00,0.0071
753.00,0.0077
752.00,0.0084
751.00,0.0092
750.00,0.0101
749.00,0.0111
748.00,0.0123
747.00,0.0134
746.00,0.0144
745.00,0.0153
744.00,0.0160
743.00,0.0167
742.00,0.0173
741.00,0.0179
740.00,0.0185
739.00,0.0191
738.00,0.0195
737.00,0.0199
736.00,0.0203
735.00,0.0206
734.00,0.0209
733.00,0.0211
732.00,0.0213
731.00,0.0216
730.00,0.0219
729.00,0.0221
728.00,0.0224
727.00,0.0228
726.00,0.0231
725.00,0.0234
724.00,0.0235
723.00,0.0235
722.00,0.0233
721.00,0.0231
720.00,0.0227
719.00,0.0223
718.00,0.0219
717.00,0.0216
716.00,0.0213
715.00,0.0211
714.00,0.0211
713.00,0.0211
712.00,0.0213
711.00,0.0217
710.00,0.0222
709.00,0.0229
708.00,0.0236
707.00,0.0243
706.00,0.0250
705.00,0.0257
704.00,0.0263
703.00,0.0267
702.00,0.0271
701.00,0.0273
700.00,0.0273
699.00,0.0270
698.00,0.0265
697.00,0.0257
696.00,0.0248
695.00,0.0238
694.00,0.0228
693.00,0.0218
692.00,0.0207
691.00,0.0196
690.00,0.0185
689.00,0.0175
688.00,0.0168
687.00,0.0161
686.00,0.0154
685.00,0.0147
684.00,0.0140
683.00,0.0134
682.00,0.0128
681.00,0.0125
680.00,0.0124
679.00,0.0125
678.00,0.0126
677.00,0.0127
676.00,0.0129
675.00,0.0133
674.00,0.0140
673.00,0.0148
672.00,0.0153
671.00,0.0151
670.00,0.0145
669.00,0.0145
668.00,0.0159
667.00,0.0175
666.00,0.0178
665.00,0.0168
664.00,0.0155
663.00,0.0146
662.00,0.0141
661.00,0.0137
660.00,0.0131
659.00,0.0125
658.00,0.0121
657.00,0.0118
656.00,0.0116
655.00,0.0113
654.00,0.0110
653.00,0.0106
652.00,0.0101
651.00,0.0096
650.00,0.0091
649.00,0.0089
648.00,0.0087
647.00,0.0084
646.00,0.0081
645.00,0.0078
644.00,0.0075
643.00,0.0073
642.00,0.0071
641.00,0.0069
640.00,0.0068
639.00,0.0066
638.00,0.0064
637.00,0.0065
636.00,0.0068
635.00,0.0075
634.00,0.0084
633.00,0.0093
632.00,0.0103
631.00,0.0113
630.00,0.0123
629.00,0.0135
628.00,0.0149
627.00,0.0164
626.00,0.0180
625.00,0.0197
624.00,0.0215
623.00,0.0233
622.00,0.0248
621.00,0.0263
620.00,0.0277
619.00,0.0292
618.00,0.0305
617.00,0.0319
616.00,0.0331
615.00,0.0340
614.00,0.0345
613.00,0.0349
612.00,0.0354
611.00,0.0360
610.00,0.0365
609.00,0.0371
608.00,0.0378
607.00,0.0386
606.00,0.0394
605.00,0.0402
604.00,0.0409
603.00,0.0415
602.00,0.0419
601.00,0.0422
600.00,0.0427
599.00,0.0429
598.00,0.0430
597.00,0.0428
596.00,0.0427
595.00,0.0425
594.00,0.0421
593.00,0.0418
592.00,0.0420
591.00,0.0424
590.00,0.0430
589.00,0.0437
588.00,0.0445
587.00,0.0452
586.00,0.0459
585.00,0.0467
584.00,0.0477
583.00,0.0489
582.00,0.0500
581.00,0.0508
580.00,0.0515
579.00,0.0520
578.00,0.0523
577.00,0.0524
576.00,0.0525
575.00,0.0524
574.00,0.0517
573.00,0.0507
572.00,0.0495
571.00,0.0484
570.00,0.0473
569.00,0.0462
568.00,0.0450
567.00,0.0435
566.00,0.0420
565.00,0.0407
564.00,0.0400
563.00,0.0395
562.00,0.0388
561.00,0.0380
560.00,0.0373
559.00,0.0365
558.00,0.0353
557.00,0.0340
556.00,0.0332
555.00,0.0328
554.00,0.0326
553.00,0.0322
552.00,0.0316
551.00,0.0307
550.00,0.0298
549.00,0.0293
548.00,0.0294
547.00,0.0298
546.00,0.0301
545.00,0.0300
544.00,0.0298
543.00,0.0296
542.00,0.0295
541.00,0.0297
540.00,0.0301
539.00,0.0301
538.00,0.0296
537.00,0.0289
536.00,0.0286
535.00,0.0285
534.00,0.0283
533.00,0.0277
532.00,0.0272
531.00,0.0268
530.00,0.0265
529.00,0.0261
528.00,0.0258
527.00,0.0254
526.00,0.0250
525.00,0.0248
524.00,0.0248
523.00,0.0245
522.00,0.0237
521.00,0.0227
520.00,0.0218
519.00,0.0214
518.00,0.0213
517.00,0.0215
516.00,0.0216
515.00,0.0212
514.00,0.0200
513.00,0.0187
512.00,0.0175
511.00,0.0165
510.00,0.0156
509.00,0.0145
508.00,0.0132
507.00,0.0118
506.00,0.0107
505.00,0.0101
504.00,0.0100
503.00,0.0099
502.00,0.0095
501.00,0.0090
500.00,0.0084
499.00,0.0079
498.00,0.0075
497.00,0.0077
496.00,0.0085
495.00,0.0090
494.00,0.0086
493.00,0.0076
492.00,0.0067
491.00,0.0064
490.00,0.0065
489.00,0.0068
488.00,0.0072
487.00,0.0073
486.00,0.0070
485.00,0.0069
484.00,0.0072
483.00,0.0074
482.00,0.0073
481.00,0.0072
480.00,0.0077
479.00,0.0084
478.00,0.0085
477.00,0.0079
476.00,0.0073
475.00,0.0071
474.00,0.0076
473.00,0.0091
472.00,0.0114
471.00,0.0134
470.00,0.0141
469.00,0.0141
468.00,0.0144
467.00,0.0147
466.00,0.0142
465.00,0.0130
464.00,0.0117
463.00,0.0105
462.00,0.0095
461.00,0.0089
460.00,0.0091
459.00,0.0097
458.00,0.0100
457.00,0.0099
456.00,0.0091
455.00,0.0076
454.00,0.0056
453.00,0.0044
452.00,0.0043
451.00,0.0045
450.00,0.0040
