Created as New Dataset,Sample 009 By Administrator Date Monday, June 09 2025
cm-1,A
4000.00,0.0053
3999.00,0.0053
3998.00,0.0052
3997.00,0.0052
3996.00,0.0052
3995.00,0.0052
3994.00,0.0052
3993.00,0.0052
3992.00,0.0053
3991.00,0.0053
3990.00,0.0053
3989.00,0.0053
3988.00,0.0053
3987.00,0.0053
3986.00,0.0053
3985.00,0.0053
3984.00,0.0053
3983.00,0.0053
3982.00,0.0053
3981.00,0.0053
3980.00,0.0053
3979.00,0.0052
3978.00,0.0052
3977.00,0.0052
3976.00,0.0052
3975.00,0.0052
3974.00,0.0053
3973.00,0.0053
3972.00,0.0053
3971.00,0.0053
3970.00,0.0054
3969.00,0.0054
3968.00,0.0054
3967.00,0.0054
3966.00,0.0053
3965.00,0.0053
3964.00,0.0053
3963.00,0.0053
3962.00,0.0053
3961.00,0.0053
3960.00,0.0053
3959.00,0.0053
3958.00,0.0053
3957.00,0.0053
3956.00,0.0053
3955.00,0.0053
3954.00,0.0054
3953.00,0.0054
3952.00,0.0054
3951.00,0.0054
3950.00,0.0054
3949.00,0.0053
3948.00,0.0053
3947.00,0.0053
3946.00,0.0053
3945.00,0.0054
3944.00,0.0054
3943.00,0.0054
3942.00,0.0054
3941.00,0.0053
3940.00,0.0053
3939.00,0.0053
3938.00,0.0053
3937.00,0.0054
3936.00,0.0054
3935.00,0.0054
3934.00,0.0055
3933.00,0.0055
3932.00,0.0054
3931.00,0.0054
3930.00,0.0053
3929.00,0.0053
3928.00,0.0053
3927.00,0.0053
3926.00,0.0053
3925.00,0.0054
3924.00,0.0054
3923.00,0.0054
3922.00,0.0054
3921.00,0.0054
3920.00,0.0054
3919.00,0.0054
3918.00,0.0054
3917.00,0.0054
3916.00,0.0053
3915.00,0.0053
3914.00,0.0053
3913.00,0.0053
3912.00,0.0053
3911.00,0.0053
3910.00,0.0052
3909.00,0.0053
3908.00,0.0053
3907.00,0.0054
3906.00,0.0054
3905.00,0.0055
3904.00,0.0055
3903.00,0.0055
3902.00,0.0055
3901.00,0.0054
3900.00,0.0054
3899.00,0.0053
3898.00,0.0053
3897.00,0.0053
3896.00,0.0054
3895.00,0.0054
3894.00,0.0054
3893.00,0.0054
3892.00,0.0053
3891.00,0.0053
3890.00,0.0054
3889.00,0.0054
3888.00,0.0054
3887.00,0.0055
3886.00,0.0055
3885.00,0.0055
3884.00,0.0055
3883.00,0.0055
3882.00,0.0055
3881.00,0.0054
3880.00,0.0054
3879.00,0.0053
3878.00,0.0053
3877.00,0.0053
3876.00,0.0053
3875.00,0.0053
3874.00,0.0054
3873.00,0.0054
3872.00,0.0055
3871.00,0.0055
3870.00,0.0055
3869.00,0.0055
3868.00,0.0055
3867.00,0.0055
3866.00,0.0054
3865.00,0.0054
3864.00,0.0053
3863.00,0.0053
3862.00,0.0052
3861.00,0.0052
3860.00,0.0052
3859.00,0.0052
3858.00,0.0053
3857.00,0.0054
3856.00,0.0055
3855.00,0.0056
3854.00,0.0056
3853.00,0.0055
3852.00,0.0054
3851.00,0.0053
3850.00,0.0053
3849.00,0.0053
3848.00,0.0053
3847.00,0.0053
3846.00,0.0054
3845.00,0.0054
3844.00,0.0054
3843.00,0.0054
3842.00,0.0055
3841.00,0.0055
3840.00,0.0055
3839.00,0.0055
3838.00,0.0055
3837.00,0.0055
3836.00,0.0055
3835.00,0.0054
3834.00,0.0054
3833.00,0.0054
3832.00,0.0053
3831.00,0.0053
3830.00,0.0053
3829.00,0.0052
3828.00,0.0052
3827.00,0.0052
3826.00,0.0053
3825.00,0.0054
3824.00,0.0054
3823.00,0.0055
3822.00,0.0055
3821.00,0.0055
3820.00,0.0055
3819.00,0.0055
3818.00,0.0055
3817.00,0.0054
3816.00,0.0053
3815.00,0.0053
3814.00,0.0053
3813.00,0.0053
3812.00,0.0053
3811.00,0.0053
3810.00,0.0054
3809.00,0.0054
3808.00,0.0054
3807.00,0.0055
3806.00,0.0055
3805.00,0.0055
3804.00,0.0055
3803.00,0.0055
3802.00,0.0054
3801.00,0.0054
3800.00,0.0054
3799.00,0.0054
3798.00,0.0054
3797.00,0.0054
3796.00,0.0054
3795.00,0.0054
3794.00,0.0054
3793.00,0.0054
3792.00,0.0054
3791.00,0.0054
3790.00,0.0054
3789.00,0.0055
3788.00,0.0055
3787.00,0.0055
3786.00,0.0055
3785.00,0.0055
3784.00,0.0054
3783.00,0.0055
3782.00,0.0055
3781.00,0.0055
3780.00,0.0056
3779.00,0.0056
3778.00,0.0056
3777.00,0.0056
3776.00,0.0055
3775.00,0.0055
3774.00,0.0055
3773.00,0.0055
3772.00,0.0055
3771.00,0.0055
3770.00,0.0056
3769.00,0.0056
3768.00,0.0056
3767.00,0.0056
3766.00,0.0056
3765.00,0.0057
3764.00,0.0057
3763.00,0.0057
3762.00,0.0057
3761.00,0.0058
3760.00,0.0058
3759.00,0.0058
3758.00,0.0059
3757.00,0.0059
3756.00,0.0059
3755.00,0.0060
3754.00,0.0060
3753.00,0.0060
3752.00,0.0061
3751.00,0.0061
3750.00,0.0061
3749.00,0.0062
3748.00,0.0062
3747.00,0.0062
3746.00,0.0062
3745.00,0.0062
3744.00,0.0062
3743.00,0.0062
3742.00,0.0062
3741.00,0.0062
3740.00,0.0062
3739.00,0.0062
3738.00,0.0062
3737.00,0.0062
3736.00,0.0062
3735.00,0.0062
3734.00,0.0062
3733.00,0.0062
3732.00,0.0062
3731.00,0.0063
3730.00,0.0063
3729.00,0.0063
3728.00,0.0063
3727.00,0.0063
3726.00,0.0063
3725.00,0.0064
3724.00,0.0064
3723.00,0.0065
3722.00,0.0065
3721.00,0.0065
3720.00,0.0065
3719.00,0.0065
3718.00,0.0065
3717.00,0.0066
3716.00,0.0067
3715.00,0.0067
3714.00,0.0068
3713.00,0.0068
3712.00,0.0069
3711.00,0.0069
3710.00,0.0070
3709.00,0.0071
3708.00,0.0071
3707.00,0.0072
3706.00,0.0072
3705.00,0.0073
3704.00,0.0073
3703.00,0.0074
3702.00,0.0075
3701.00,0.0075
3700.00,0.0076
3699.00,0.0076
3698.00,0.0077
3697.00,0.0078
3696.00,0.0079
3695.00,0.0080
3694.00,0.0081
3693.00,0.0082
3692.00,0.0083
3691.00,0.0084
3690.00,0.0086
3689.00,0.0088
3688.00,0.0090
3687.00,0.0092
3686.00,0.0093
3685.00,0.0094
3684.00,0.0095
3683.00,0.0096
3682.00,0.0098
3681.00,0.0100
3680.00,0.0102
3679.00,0.0104
3678.00,0.0106
3677.00,0.0108
3676.00,0.0112
3675.00,0.0116
3674.00,0.0119
3673.00,0.0121
3672.00,0.0122
3671.00,0.0124
3670.00,0.0128
3669.00,0.0132
3668.00,0.0136
3667.00,0.0139
3666.00,0.0141
3665.00,0.0143
3664.00,0.0146
3663.00,0.0148
3662.00,0.0151
3661.00,0.0154
3660.00,0.0158
3659.00,0.0161
3658.00,0.0166
3657.00,0.0171
3656.00,0.0176
3655.00,0.0182
3654.00,0.0185
3653.00,0.0188
3652.00,0.0189
3651.00,0.0193
3650.00,0.0198
3649.00,0.0207
3648.00,0.0217
3647.00,0.0225
3646.00,0.0232
3645.00,0.0236
3644.00,0.0239
3643.00,0.0243
3642.00,0.0246
3641.00,0.0250
3640.00,0.0255
3639.00,0.0260
3638.00,0.0265
3637.00,0.0270
3636.00,0.0275
3635.00,0.0281
3634.00,0.0286
3633.00,0.0290
3632.00,0.0294
3631.00,0.0298
3630.00,0.0305
3629.00,0.0316
3628.00,0.0329
3627.00,0.0341
3626.00,0.0348
3625.00,0.0353
3624.00,0.0355
3623.00,0.0357
3622.00,0.0359
3621.00,0.0363
3620.00,0.0370
3619.00,0.0379
3618.00,0.0389
3617.00,0.0398
3616.00,0.0404
3615.00,0.0409
3614.00,0.0415
3613.00,0.0421
3612.00,0.0427
3611.00,0.0433
3610.00,0.0439
3609.00,0.0447
3608.00,0.0455
3607.00,0.0464
3606.00,0.0471
3605.00,0.0477
3604.00,0.0481
3603.00,0.0485
3602.00,0.0490
3601.00,0.0496
3600.00,0.0502
3599.00,0.0509
3598.00,0.0515
3597.00,0.0521
3596.00,0.0528
3595.00,0.0535
3594.00,0.0543
3593.00,0.0550
3592.00,0.0555
3591.00,0.0558
3590.00,0.0561
3589.00,0.0566
3588.00,0.0575
3587.00,0.0587
3586.00,0.0599
3585.00,0.0608
3584.00,0.0614
3583.00,0.0618
3582.00,0.0621
3581.00,0.0625
3580.00,0.0630
3579.00,0.0635
3578.00,0.0641
3577.00,0.0648
3576.00,0.0654
3575.00,0.0661
3574.00,0.0667
3573.00,0.0672
3572.00,0.0676
3571.00,0.0678
3570.00,0.0680
3569.00,0.0683
3568.00,0.0691
3567.00,0.0703
3566.00,0.0718
3565.00,0.0730
3564.00,0.0738
3563.00,0.0743
3562.00,0.0747
3561.00,0.0750
3560.00,0.0754
3559.00,0.0759
3558.00,0.0764
3557.00,0.0769
3556.00,0.0773
3555.00,0.0777
3554.00,0.0782
3553.00,0.0788
3552.00,0.0796
3551.00,0.0804
3550.00,0.0810
3549.00,0.0815
3548.00,0.0819
3547.00,0.0825
3546.00,0.0833
3545.00,0.0842
3544.00,0.0851
3543.00,0.0858
3542.00,0.0864
3541.00,0.0868
3540.00,0.0872
3539.00,0.0876
3538.00,0.0880
3537.00,0.0886
3536.00,0.0892
3535.00,0.0898
3534.00,0.0904
3533.00,0.0909
3532.00,0.0913
3531.00,0.0917
3530.00,0.0921
3529.00,0.0927
3528.00,0.0934
3527.00,0.0942
3526.00,0.0949
3525.00,0.0955
3524.00,0.0962
3523.00,0.0968
3522.00,0.0974
3521.00,0.0980
3520.00,0.0985
3519.00,0.0990
3518.00,0.0995
3517.00,0.1001
3516.00,0.1007
3515.00,0.1012
3514.00,0.1016
3513.00,0.1020
3512.00,0.1024
3511.00,0.1029
3510.00,0.1035
3509.00,0.1042
3508.00,0.1049
3507.00,0.1055
3506.00,0.1059
3505.00,0.1064
3504.00,0.1069
3503.00,0.1076
3502.00,0.1084
3501.00,0.1091
3500.00,0.1097
3499.00,0.1102
3498.00,0.1106
3497.00,0.1110
3496.00,0.1115
3495.00,0.1120
3494.00,0.1126
3493.00,0.1131
3492.00,0.1136
3491.00,0.1141
3490.00,0.1146
3489.00,0.1152
3488.00,0.1158
3487.00,0.1164
3486.00,0.1169
3485.00,0.1173
3484.00,0.1177
3483.00,0.1183
3482.00,0.1190
3481.00,0.1197
3480.00,0.1204
3479.00,0.1210
3478.00,0.1214
3477.00,0.1218
3476.00,0.1222
3475.00,0.1227
3474.00,0.1232
3473.00,0.1238
3472.00,0.1244
3471.00,0.1249
3470.00,0.1254
3469.00,0.1260
3468.00,0.1265
3467.00,0.1269
3466.00,0.1274
3465.00,0.1278
3464.00,0.1283
3463.00,0.1287
3462.00,0.1293
3461.00,0.1298
3460.00,0.1304
3459.00,0.1309
3458.00,0.1314
3457.00,0.1318
3456.00,0.1323
3455.00,0.1328
3454.00,0.1333
3453.00,0.1338
3452.00,0.1342
3451.00,0.1346
3450.00,0.1348
3449.00,0.1352
3448.00,0.1356
3447.00,0.1363
3446.00,0.1370
3445.00,0.1376
3444.00,0.1382
3443.00,0.1386
3442.00,0.1391
3441.00,0.1396
3440.00,0.1401
3439.00,0.1405
3438.00,0.1410
3437.00,0.1414
3436.00,0.1419
3435.00,0.1422
3434.00,0.1426
3433.00,0.1430
3432.00,0.1434
3431.00,0.1438
3430.00,0.1442
3429.00,0.1446
3428.00,0.1450
3427.00,0.1454
3426.00,0.1458
3425.00,0.1461
3424.00,0.1465
3423.00,0.1468
3422.00,0.1472
3421.00,0.1477
3420.00,0.1482
3419.00,0.1487
3418.00,0.1491
3417.00,0.1495
3416.00,0.1499
3415.00,0.1502
3414.00,0.1505
3413.00,0.1508
3412.00,0.1511
3411.00,0.1514
3410.00,0.1517
3409.00,0.1520
3408.00,0.1523
3407.00,0.1526
3406.00,0.1529
3405.00,0.1532
3404.00,0.1535
3403.00,0.1539
3402.00,0.1543
3401.00,0.1546
3400.00,0.1548
3399.00,0.1550
3398.00,0.1552
3397.00,0.1554
3396.00,0.1557
3395.00,0.1559
3394.00,0.1562
3393.00,0.1564
3392.00,0.1567
3391.00,0.1570
3390.00,0.1571
3389.00,0.1572
3388.00,0.1573
3387.00,0.1574
3386.00,0.1575
3385.00,0.1577
3384.00,0.1580
3383.00,0.1582
3382.00,0.1584
3381.00,0.1585
3380.00,0.1586
3379.00,0.1587
3378.00,0.1588
3377.00,0.1588
3376.00,0.1589
3375.00,0.1591
3374.00,0.1592
3373.00,0.1593
3372.00,0.1595
3371.00,0.1596
3370.00,0.1597
3369.00,0.1597
3368.00,0.1597
3367.00,0.1597
3366.00,0.1597
3365.00,0.1598
3364.00,0.1598
3363.00,0.1599
3362.00,0.1599
3361.00,0.1599
3360.00,0.1599
3359.00,0.1598
3358.00,0.1598
3357.00,0.1597
3356.00,0.1598
3355.00,0.1598
3354.00,0.1599
3353.00,0.1599
3352.00,0.1599
3351.00,0.1599
3350.00,0.1599
3349.00,0.1598
3348.00,0.1597
3347.00,0.1596
3346.00,0.1595
3345.00,0.1594
3344.00,0.1594
3343.00,0.1593
3342.00,0.1592
3341.00,0.1591
3340.00,0.1590
3339.00,0.1589
3338.00,0.1587
3337.00,0.1586
3336.00,0.1586
3335.00,0.1585
3334.00,0.1584
3333.00,0.1583
3332.00,0.1581
3331.00,0.1580
3330.00,0.1578
3329.00,0.1577
3328.00,0.1576
3327.00,0.1575
3326.00,0.1574
3325.00,0.1573
3324.00,0.1572
3323.00,0.1571
3322.00,0.1570
3321.00,0.1569
3320.00,0.1568
3319.00,0.1567
3318.00,0.1566
3317.00,0.1564
3316.00,0.1563
3315.00,0.1561
3314.00,0.1559
3313.00,0.1558
3312.00,0.1557
3311.00,0.1556
3310.00,0.1555
3309.00,0.1554
3308.00,0.1553
3307.00,0.1552
3306.00,0.1551
3305.00,0.1549
3304.00,0.1547
3303.00,0.1546
3302.00,0.1544
3301.00,0.1543
3300.00,0.1541
3299.00,0.1540
3298.00,0.1539
3297.00,0.1537
3296.00,0.1536
3295.00,0.1535
3294.00,0.1533
3293.00,0.1532
3292.00,0.1531
3291.00,0.1530
3290.00,0.1529
3289.00,0.1528
3288.00,0.1526
3287.00,0.1524
3286.00,0.1522
3285.00,0.1520
3284.00,0.1518
3283.00,0.1516
3282.00,0.1515
3281.00,0.1513
3280.00,0.1511
3279.00,0.1509
3278.00,0.1506
3277.00,0.1504
3276.00,0.1501
3275.00,0.1499
3274.00,0.1497
3273.00,0.1495
3272.00,0.1493
3271.00,0.1491
3270.00,0.1488
3269.00,0.1485
3268.00,0.1483
3267.00,0.1480
3266.00,0.1477
3265.00,0.1474
3264.00,0.1470
3263.00,0.1467
3262.00,0.1464
3261.00,0.1461
3260.00,0.1458
3259.00,0.1454
3258.00,0.1451
3257.00,0.1448
3256.00,0.1444
3255.00,0.1441
3254.00,0.1438
3253.00,0.1435
3252.00,0.1431
3251.00,0.1428
3250.00,0.1424
3249.00,0.1419
3248.00,0.1415
3247.00,0.1410
3246.00,0.1406
3245.00,0.1403
3244.00,0.1400
3243.00,0.1397
3242.00,0.1393
3241.00,0.1389
3240.00,0.1384
3239.00,0.1380
3238.00,0.1376
3237.00,0.1372
3236.00,0.1368
3235.00,0.1364
3234.00,0.1360
3233.00,0.1356
3232.00,0.1352
3231.00,0.1348
3230.00,0.1344
3229.00,0.1339
3228.00,0.1335
3227.00,0.1331
3226.00,0.1326
3225.00,0.1322
3224.00,0.1317
3223.00,0.1312
3222.00,0.1307
3221.00,0.1302
3220.00,0.1298
3219.00,0.1294
3218.00,0.1289
3217.00,0.1285
3216.00,0.1280
3215.00,0.1275
3214.00,0.1270
3213.00,0.1266
3212.00,0.1261
3211.00,0.1255
3210.00,0.1250
3209.00,0.1244
3208.00,0.1239
3207.00,0.1234
3206.00,0.1229
3205.00,0.1223
3204.00,0.1218
3203.00,0.1213
3202.00,0.1207
3201.00,0.1201
3200.00,0.1195
3199.00,0.1190
3198.00,0.1185
3197.00,0.1179
3196.00,0.1174
3195.00,0.1169
3194.00,0.1163
3193.00,0.1157
3192.00,0.1151
3191.00,0.1145
3190.00,0.1139
3189.00,0.1133
3188.00,0.1128
3187.00,0.1122
3186.00,0.1116
3185.00,0.1111
3184.00,0.1105
3183.00,0.1099
3182.00,0.1093
3181.00,0.1087
3180.00,0.1081
3179.00,0.1075
3178.00,0.1069
3177.00,0.1063
3176.00,0.1057
3175.00,0.1051
3174.00,0.1045
3173.00,0.1038
3172.00,0.1032
3171.00,0.1026
3170.00,0.1021
3169.00,0.1015
3168.00,0.1009
3167.00,0.1003
3166.00,0.0997
3165.00,0.0991
3164.00,0.0985
3163.00,0.0979
3162.00,0.0973
3161.00,0.0967
3160.00,0.0961
3159.00,0.0955
3158.00,0.0949
3157.00,0.0943
3156.00,0.0937
3155.00,0.0932
3154.00,0.0926
3153.00,0.0920
3152.00,0.0915
3151.00,0.0909
3150.00,0.0903
3149.00,0.0898
3148.00,0.0892
3147.00,0.0886
3146.00,0.0880
3145.00,0.0874
3144.00,0.0868
3143.00,0.0863
3142.00,0.0857
3141.00,0.0852
3140.00,0.0847
3139.00,0.0841
3138.00,0.0836
3137.00,0.0830
3136.00,0.0824
3135.00,0.0818
3134.00,0.0813
3133.00,0.0808
3132.00,0.0803
3131.00,0.0798
3130.00,0.0793
3129.00,0.0787
3128.00,0.0783
3127.00,0.0778
3126.00,0.0774
3125.00,0.0769
3124.00,0.0764
3123.00,0.0759
3122.00,0.0755
3121.00,0.0750
3120.00,0.0746
3119.00,0.0741
3118.00,0.0736
3117.00,0.0731
3116.00,0.0726
3115.00,0.0721
3114.00,0.0717
3113.00,0.0712
3112.00,0.0708
3111.00,0.0704
3110.00,0.0700
3109.00,0.0696
3108.00,0.0692
3107.00,0.0688
3106.00,0.0684
3105.00,0.0680
3104.00,0.0675
3103.00,0.0671
3102.00,0.0667
3101.00,0.0663
3100.00,0.0660
3099.00,0.0656
3098.00,0.0653
3097.00,0.0649
3096.00,0.0645
3095.00,0.0642
3094.00,0.0638
3093.00,0.0635
3092.00,0.0631
3091.00,0.0628
3090.00,0.0624
3089.00,0.0621
3088.00,0.0617
3087.00,0.0614
3086.00,0.0611
3085.00,0.0607
3084.00,0.0604
3083.00,0.0600
3082.00,0.0597
3081.00,0.0593
3080.00,0.0590
3079.00,0.0587
3078.00,0.0584
3077.00,0.0581
3076.00,0.0578
3075.00,0.0575
3074.00,0.0572
3073.00,0.0568
3072.00,0.0565
3071.00,0.0561
3070.00,0.0558
3069.00,0.0555
3068.00,0.0551
3067.00,0.0548
3066.00,0.0545
3065.00,0.0542
3064.00,0.0539
3063.00,0.0536
3062.00,0.0533
3061.00,0.0529
3060.00,0.0526
3059.00,0.0522
3058.00,0.0519
3057.00,0.0516
3056.00,0.0513
3055.00,0.0509
3054.00,0.0506
3053.00,0.0502
3052.00,0.0499
3051.00,0.0495
3050.00,0.0492
3049.00,0.0489
3048.00,0.0486
3047.00,0.0482
3046.00,0.0479
3045.00,0.0476
3044.00,0.0473
3043.00,0.0470
3042.00,0.0467
3041.00,0.0464
3040.00,0.0461
3039.00,0.0458
3038.00,0.0455
3037.00,0.0452
3036.00,0.0450
3035.00,0.0447
3034.00,0.0445
3033.00,0.0442
3032.00,0.0440
3031.00,0.0437
3030.00,0.0435
3029.00,0.0432
3028.00,0.0429
3027.00,0.0427
3026.00,0.0424
3025.00,0.0422
3024.00,0.0419
3023.00,0.0417
3022.00,0.0415
3021.00,0.0413
3020.00,0.0411
3019.00,0.0409
3018.00,0.0407
3017.00,0.0405
3016.00,0.0403
3015.00,0.0401
3014.00,0.0399
3013.00,0.0397
3012.00,0.0396
3011.00,0.0394
3010.00,0.0392
3009.00,0.0390
3008.00,0.0389
3007.00,0.0387
3006.00,0.0385
3005.00,0.0384
3004.00,0.0383
3003.00,0.0382
3002.00,0.0380
3001.00,0.0379
3000.00,0.0378
2999.00,0.0377
2998.00,0.0377
2997.00,0.0376
2996.00,0.0376
2995.00,0.0376
2994.00,0.0375
2993.00,0.0375
2992.00,0.0374
2991.00,0.0375
2990.00,0.0375
2989.00,0.0376
2988.00,0.0376
2987.00,0.0377
2986.00,0.0377
2985.00,0.0378
2984.00,0.0379
2983.00,0.0380
2982.00,0.0381
2981.00,0.0382
2980.00,0.0383
2979.00,0.0384
2978.00,0.0385
2977.00,0.0387
2976.00,0.0388
2975.00,0.0389
2974.00,0.0391
2973.00,0.0393
2972.00,0.0395
2971.00,0.0396
2970.00,0.0398
2969.00,0.0399
2968.00,0.0401
2967.00,0.0402
2966.00,0.0403
2965.00,0.0404
2964.00,0.0405
2963.00,0.0405
2962.00,0.0406
2961.00,0.0406
2960.00,0.0406
2959.00,0.0406
2958.00,0.0405
2957.00,0.0404
2956.00,0.0403
2955.00,0.0401
2954.00,0.0400
2953.00,0.0399
2952.00,0.0397
2951.00,0.0396
2950.00,0.0395
2949.00,0.0395
2948.00,0.0394
2947.00,0.0393
2946.00,0.0393
2945.00,0.0393
2944.00,0.0393
2943.00,0.0393
2942.00,0.0394
2941.00,0.0394
2940.00,0.0395
2939.00,0.0395
2938.00,0.0396
2937.00,0.0396
2936.00,0.0397
2935.00,0.0397
2934.00,0.0398
2933.00,0.0398
2932.00,0.0398
2931.00,0.0398
2930.00,0.0397
2929.00,0.0397
2928.00,0.0397
2927.00,0.0397
2926.00,0.0398
2925.00,0.0398
2924.00,0.0397
2923.00,0.0397
2922.00,0.0395
2921.00,0.0393
2920.00,0.0391
2919.00,0.0389
2918.00,0.0386
2917.00,0.0383
2916.00,0.0380
2915.00,0.0377
2914.00,0.0374
2913.00,0.0370
2912.00,0.0367
2911.00,0.0364
2910.00,0.0361
2909.00,0.0359
2908.00,0.0357
2907.00,0.0354
2906.00,0.0352
2905.00,0.0350
2904.00,0.0348
2903.00,0.0345
2902.00,0.0343
2901.00,0.0341
2900.00,0.0338
2899.00,0.0336
2898.00,0.0333
2897.00,0.0331
2896.00,0.0329
2895.00,0.0327
2894.00,0.0325
2893.00,0.0322
2892.00,0.0320
2891.00,0.0318
2890.00,0.0316
2889.00,0.0314
2888.00,0.0312
2887.00,0.0310
2886.00,0.0308
2885.00,0.0307
2884.00,0.0305
2883.00,0.0303
2882.00,0.0302
2881.00,0.0301
2880.00,0.0299
2879.00,0.0298
2878.00,0.0296
2877.00,0.0295
2876.00,0.0294
2875.00,0.0293
2874.00,0.0291
2873.00,0.0289
2872.00,0.0287
2871.00,0.0285
2870.00,0.0283
2869.00,0.0281
2868.00,0.0279
2867.00,0.0276
2866.00,0.0274
2865.00,0.0272
2864.00,0.0270
2863.00,0.0269
2862.00,0.0267
2861.00,0.0267
2860.00,0.0266
2859.00,0.0266
2858.00,0.0265
2857.00,0.0265
2856.00,0.0265
2855.00,0.0264
2854.00,0.0264
2853.00,0.0263
2852.00,0.0261
2851.00,0.0259
2850.00,0.0256
2849.00,0.0253
2848.00,0.0250
2847.00,0.0246
2846.00,0.0242
2845.00,0.0238
2844.00,0.0235
2843.00,0.0232
2842.00,0.0229
2841.00,0.0227
2840.00,0.0224
2839.00,0.0222
2838.00,0.0220
2837.00,0.0219
2836.00,0.0217
2835.00,0.0215
2834.00,0.0214
2833.00,0.0213
2832.00,0.0211
2831.00,0.0210
2830.00,0.0208
2829.00,0.0207
2828.00,0.0206
2827.00,0.0205
2826.00,0.0204
2825.00,0.0203
2824.00,0.0202
2823.00,0.0201
2822.00,0.0200
2821.00,0.0199
2820.00,0.0198
2819.00,0.0196
2818.00,0.0195
2817.00,0.0194
2816.00,0.0193
2815.00,0.0192
2814.00,0.0191
2813.00,0.0190
2812.00,0.0189
2811.00,0.0189
2810.00,0.0188
2809.00,0.0187
2808.00,0.0186
2807.00,0.0185
2806.00,0.0184
2805.00,0.0183
2804.00,0.0182
2803.00,0.0181
2802.00,0.0181
2801.00,0.0180
2800.00,0.0180
2799.00,0.0179
2798.00,0.0178
2797.00,0.0177
2796.00,0.0176
2795.00,0.0175
2794.00,0.0174
2793.00,0.0174
2792.00,0.0173
2791.00,0.0172
2790.00,0.0171
2789.00,0.0171
2788.00,0.0170
2787.00,0.0170
2786.00,0.0170
2785.00,0.0169
2784.00,0.0168
2783.00,0.0167
2782.00,0.0167
2781.00,0.0166
2780.00,0.0165
2779.00,0.0164
2778.00,0.0164
2777.00,0.0163
2776.00,0.0163
2775.00,0.0162
2774.00,0.0162
2773.00,0.0161
2772.00,0.0161
2771.00,0.0160
2770.00,0.0160
2769.00,0.0159
2768.00,0.0159
2767.00,0.0158
2766.00,0.0158
2765.00,0.0157
2764.00,0.0156
2763.00,0.0156
2762.00,0.0155
2761.00,0.0155
2760.00,0.0154
2759.00,0.0154
2758.00,0.0153
2757.00,0.0153
2756.00,0.0152
2755.00,0.0152
2754.00,0.0151
2753.00,0.0151
2752.00,0.0150
2751.00,0.0150
2750.00,0.0150
2749.00,0.0149
2748.00,0.0149
2747.00,0.0149
2746.00,0.0148
2745.00,0.0148
2744.00,0.0147
2743.00,0.0146
2742.00,0.0146
2741.00,0.0146
2740.00,0.0146
2739.00,0.0145
2738.00,0.0145
2737.00,0.0145
2736.00,0.0144
2735.00,0.0144
2734.00,0.0143
2733.00,0.0143
2732.00,0.0143
2731.00,0.0142
2730.00,0.0141
2729.00,0.0141
2728.00,0.0140
2727.00,0.0140
2726.00,0.0139
2725.00,0.0139
2724.00,0.0139
2723.00,0.0139
2722.00,0.0139
2721.00,0.0138
2720.00,0.0138
2719.00,0.0138
2718.00,0.0137
2717.00,0.0137
2716.00,0.0136
2715.00,0.0136
2714.00,0.0136
2713.00,0.0135
2712.00,0.0135
2711.00,0.0134
2710.00,0.0134
2709.00,0.0134
2708.00,0.0134
2707.00,0.0133
2706.00,0.0133
2705.00,0.0133
2704.00,0.0132
2703.00,0.0132
2702.00,0.0132
2701.00,0.0131
2700.00,0.0131
2699.00,0.0130
2698.00,0.0130
2697.00,0.0129
2696.00,0.0129
2695.00,0.0129
2694.00,0.0128
2693.00,0.0128
2692.00,0.0128
2691.00,0.0128
2690.00,0.0128
2689.00,0.0128
2688.00,0.0127
2687.00,0.0127
2686.00,0.0128
2685.00,0.0128
2684.00,0.0127
2683.00,0.0127
2682.00,0.0126
2681.00,0.0126
2680.00,0.0125
2679.00,0.0125
2678.00,0.0125
2677.00,0.0124
2676.00,0.0124
2675.00,0.0124
2674.00,0.0124
2673.00,0.0123
2672.00,0.0123
2671.00,0.0123
2670.00,0.0122
2669.00,0.0122
2668.00,0.0122
2667.00,0.0122
2666.00,0.0123
2665.00,0.0123
2664.00,0.0123
2663.00,0.0123
2662.00,0.0123
2661.00,0.0124
2660.00,0.0124
2659.00,0.0123
2658.00,0.0123
2657.00,0.0123
2656.00,0.0123
2655.00,0.0123
2654.00,0.0123
2653.00,0.0122
2652.00,0.0122
2651.00,0.0122
2650.00,0.0122
2649.00,0.0121
2648.00,0.0121
2647.00,0.0121
2646.00,0.0121
2645.00,0.0121
2644.00,0.0120
2643.00,0.0119
2642.00,0.0118
2641.00,0.0118
2640.00,0.0117
2639.00,0.0117
2638.00,0.0117
2637.00,0.0116
2636.00,0.0116
2635.00,0.0115
2634.00,0.0116
2633.00,0.0116
2632.00,0.0115
2631.00,0.0115
2630.00,0.0114
2629.00,0.0113
2628.00,0.0113
2627.00,0.0112
2626.00,0.0111
2625.00,0.0111
2624.00,0.0110
2623.00,0.0110
2622.00,0.0110
2621.00,0.0110
2620.00,0.0109
2619.00,0.0109
2618.00,0.0109
2617.00,0.0108
2616.00,0.0108
2615.00,0.0108
2614.00,0.0107
2613.00,0.0107
2612.00,0.0107
2611.00,0.0107
2610.00,0.0106
2609.00,0.0106
2608.00,0.0105
2607.00,0.0105
2606.00,0.0104
2605.00,0.0103
2604.00,0.0103
2603.00,0.0103
2602.00,0.0102
2601.00,0.0102
2600.00,0.0102
2599.00,0.0102
2598.00,0.0102
2597.00,0.0102
2596.00,0.0103
2595.00,0.0102
2594.00,0.0102
2593.00,0.0101
2592.00,0.0100
2591.00,0.0100
2590.00,0.0100
2589.00,0.0100
2588.00,0.0099
2587.00,0.0099
2586.00,0.0099
2585.00,0.0098
2584.00,0.0098
2583.00,0.0098
2582.00,0.0097
2581.00,0.0097
2580.00,0.0097
2579.00,0.0097
2578.00,0.0097
2577.00,0.0097
2576.00,0.0097
2575.00,0.0096
2574.00,0.0096
2573.00,0.0095
2572.00,0.0095
2571.00,0.0095
2570.00,0.0095
2569.00,0.0095
2568.00,0.0095
2567.00,0.0095
2566.00,0.0095
2565.00,0.0094
2564.00,0.0094
2563.00,0.0094
2562.00,0.0094
2561.00,0.0093
2560.00,0.0094
2559.00,0.0094
2558.00,0.0094
2557.00,0.0094
2556.00,0.0094
2555.00,0.0094
2554.00,0.0093
2553.00,0.0093
2552.00,0.0092
2551.00,0.0092
2550.00,0.0091
2549.00,0.0091
2548.00,0.0091
2547.00,0.0091
2546.00,0.0091
2545.00,0.0091
2544.00,0.0090
2543.00,0.0090
2542.00,0.0091
2541.00,0.0091
2540.00,0.0092
2539.00,0.0092
2538.00,0.0092
2537.00,0.0092
2536.00,0.0092
2535.00,0.0091
2534.00,0.0091
2533.00,0.0091
2532.00,0.0091
2531.00,0.0091
2530.00,0.0090
2529.00,0.0090
2528.00,0.0090
2527.00,0.0089
2526.00,0.0089
2525.00,0.0089
2524.00,0.0089
2523.00,0.0089
2522.00,0.0089
2521.00,0.0089
2520.00,0.0089
2519.00,0.0089
2518.00,0.0089
2517.00,0.0089
2516.00,0.0089
2515.00,0.0089
2514.00,0.0089
2513.00,0.0089
2512.00,0.0089
2511.00,0.0088
2510.00,0.0088
2509.00,0.0088
2508.00,0.0088
2507.00,0.0089
2506.00,0.0089
2505.00,0.0089
2504.00,0.0089
2503.00,0.0088
2502.00,0.0088
2501.00,0.0088
2500.00,0.0088
2499.00,0.0088
2498.00,0.0089
2497.00,0.0089
2496.00,0.0089
2495.00,0.0088
2494.00,0.0088
2493.00,0.0087
2492.00,0.0087
2491.00,0.0087
2490.00,0.0088
2489.00,0.0088
2488.00,0.0089
2487.00,0.0088
2486.00,0.0088
2485.00,0.0087
2484.00,0.0087
2483.00,0.0087
2482.00,0.0088
2481.00,0.0088
2480.00,0.0088
2479.00,0.0087
2478.00,0.0086
2477.00,0.0086
2476.00,0.0086
2475.00,0.0086
2474.00,0.0086
2473.00,0.0086
2472.00,0.0086
2471.00,0.0085
2470.00,0.0085
2469.00,0.0084
2468.00,0.0084
2467.00,0.0084
2466.00,0.0084
2465.00,0.0084
2464.00,0.0085
2463.00,0.0085
2462.00,0.0086
2461.00,0.0086
2460.00,0.0087
2459.00,0.0087
2458.00,0.0087
2457.00,0.0087
2456.00,0.0087
2455.00,0.0087
2454.00,0.0088
2453.00,0.0088
2452.00,0.0088
2451.00,0.0089
2450.00,0.0089
2449.00,0.0088
2448.00,0.0088
2447.00,0.0087
2446.00,0.0087
2445.00,0.0087
2444.00,0.0086
2443.00,0.0086
2442.00,0.0085
2441.00,0.0084
2440.00,0.0084
2439.00,0.0084
2438.00,0.0084
2437.00,0.0084
2436.00,0.0085
2435.00,0.0085
2434.00,0.0085
2433.00,0.0084
2432.00,0.0084
2431.00,0.0084
2430.00,0.0084
2429.00,0.0083
2428.00,0.0082
2427.00,0.0082
2426.00,0.0082
2425.00,0.0082
2424.00,0.0082
2423.00,0.0082
2422.00,0.0083
2421.00,0.0083
2420.00,0.0083
2419.00,0.0084
2418.00,0.0084
2417.00,0.0084
2416.00,0.0084
2415.00,0.0084
2414.00,0.0084
2413.00,0.0084
2412.00,0.0084
2411.00,0.0085
2410.00,0.0085
2409.00,0.0085
2408.00,0.0084
2407.00,0.0084
2406.00,0.0083
2405.00,0.0083
2404.00,0.0083
2403.00,0.0083
2402.00,0.0083
2401.00,0.0083
2400.00,0.0083
2399.00,0.0084
2398.00,0.0084
2397.00,0.0084
2396.00,0.0084
2395.00,0.0084
2394.00,0.0084
2393.00,0.0084
2392.00,0.0084
2391.00,0.0083
2390.00,0.0083
2389.00,0.0083
2388.00,0.0083
2387.00,0.0083
2386.00,0.0083
2385.00,0.0083
2384.00,0.0083
2383.00,0.0082
2382.00,0.0082
2381.00,0.0081
2380.00,0.0081
2379.00,0.0080
2378.00,0.0080
2377.00,0.0080
2376.00,0.0081
2375.00,0.0082
2374.00,0.0083
2373.00,0.0084
2372.00,0.0085
2371.00,0.0085
2370.00,0.0084
2369.00,0.0084
2368.00,0.0083
2367.00,0.0083
2366.00,0.0083
2365.00,0.0084
2364.00,0.0084
2363.00,0.0085
2362.00,0.0086
2361.00,0.0088
2360.00,0.0090
2359.00,0.0091
2358.00,0.0092
2357.00,0.0092
2356.00,0.0091
2355.00,0.0090
2354.00,0.0089
2353.00,0.0089
2352.00,0.0090
2351.00,0.0090
2350.00,0.0090
2349.00,0.0090
2348.00,0.0090
2347.00,0.0090
2346.00,0.0091
2345.00,0.0092
2344.00,0.0094
2343.00,0.0095
2342.00,0.0095
2341.00,0.0095
2340.00,0.0096
2339.00,0.0096
2338.00,0.0096
2337.00,0.0096
2336.00,0.0096
2335.00,0.0096
2334.00,0.0095
2333.00,0.0095
2332.00,0.0095
2331.00,0.0095
2330.00,0.0095
2329.00,0.0097
2328.00,0.0100
2327.00,0.0104
2326.00,0.0108
2325.00,0.0112
2324.00,0.0113
2323.00,0.0113
2322.00,0.0111
2321.00,0.0109
2320.00,0.0108
2319.00,0.0108
2318.00,0.0107
2317.00,0.0106
2316.00,0.0105
2315.00,0.0104
2314.00,0.0102
2313.00,0.0102
2312.00,0.0101
2311.00,0.0101
2310.00,0.0101
2309.00,0.0102
2308.00,0.0102
2307.00,0.0102
2306.00,0.0102
2305.00,0.0102
2304.00,0.0102
2303.00,0.0102
2302.00,0.0103
2301.00,0.0104
2300.00,0.0104
2299.00,0.0104
2298.00,0.0104
2297.00,0.0105
2296.00,0.0105
2295.00,0.0106
2294.00,0.0107
2293.00,0.0109
2292.00,0.0110
2291.00,0.0111
2290.00,0.0112
2289.00,0.0113
2288.00,0.0113
2287.00,0.0114
2286.00,0.0114
2285.00,0.0115
2284.00,0.0114
2283.00,0.0113
2282.00,0.0111
2281.00,0.0109
2280.00,0.0108
2279.00,0.0107
2278.00,0.0107
2277.00,0.0106
2276.00,0.0106
2275.00,0.0106
2274.00,0.0106
2273.00,0.0107
2272.00,0.0108
2271.00,0.0108
2270.00,0.0107
2269.00,0.0105
2268.00,0.0105
2267.00,0.0105
2266.00,0.0105
2265.00,0.0104
2264.00,0.0102
2263.00,0.0101
2262.00,0.0102
2261.00,0.0103
2260.00,0.0104
2259.00,0.0105
2258.00,0.0105
2257.00,0.0104
2256.00,0.0103
2255.00,0.0102
2254.00,0.0101
2253.00,0.0101
2252.00,0.0102
2251.00,0.0102
2250.00,0.0102
2249.00,0.0101
2248.00,0.0100
2247.00,0.0099
2246.00,0.0099
2245.00,0.0099
2244.00,0.0100
2243.00,0.0101
2242.00,0.0103
2241.00,0.0104
2240.00,0.0104
2239.00,0.0104
2238.00,0.0104
2237.00,0.0103
2236.00,0.0103
2235.00,0.0103
2234.00,0.0102
2233.00,0.0102
2232.00,0.0101
2231.00,0.0101
2230.00,0.0102
2229.00,0.0103
2228.00,0.0103
2227.00,0.0102
2226.00,0.0101
2225.00,0.0101
2224.00,0.0102
2223.00,0.0103
2222.00,0.0103
2221.00,0.0102
2220.00,0.0101
2219.00,0.0100
2218.00,0.0098
2217.00,0.0096
2216.00,0.0094
2215.00,0.0094
2214.00,0.0094
2213.00,0.0096
2212.00,0.0098
2211.00,0.0100
2210.00,0.0101
2209.00,0.0102
2208.00,0.0102
2207.00,0.0102
2206.00,0.0102
2205.00,0.0101
2204.00,0.0101
2203.00,0.0100
2202.00,0.0099
2201.00,0.0098
2200.00,0.0097
2199.00,0.0097
2198.00,0.0098
2197.00,0.0100
2196.00,0.0101
2195.00,0.0102
2194.00,0.0101
2193.00,0.0101
2192.00,0.0102
2191.00,0.0103
2190.00,0.0103
2189.00,0.0104
2188.00,0.0104
2187.00,0.0103
2186.00,0.0102
2185.00,0.0101
2184.00,0.0099
2183.00,0.0097
2182.00,0.0095
2181.00,0.0093
2180.00,0.0093
2179.00,0.0093
2178.00,0.0094
2177.00,0.0094
2176.00,0.0093
2175.00,0.0090
2174.00,0.0087
2173.00,0.0086
2172.00,0.0087
2171.00,0.0091
2170.00,0.0095
2169.00,0.0098
2168.00,0.0101
2167.00,0.0101
2166.00,0.0101
2165.00,0.0102
2164.00,0.0105
2163.00,0.0109
2162.00,0.0109
2161.00,0.0103
2160.00,0.0091
2159.00,0.0074
2158.00,0.0060
2157.00,0.0052
2156.00,0.0050
2155.00,0.0050
2154.00,0.0053
2153.00,0.0057
2152.00,0.0062
2151.00,0.0065
2150.00,0.0067
2149.00,0.0068
2148.00,0.0068
2147.00,0.0069
2146.00,0.0071
2145.00,0.0074
2144.00,0.0076
2143.00,0.0076
2142.00,0.0077
2141.00,0.0078
2140.00,0.0080
2139.00,0.0081
2138.00,0.0081
2137.00,0.0081
2136.00,0.0081
2135.00,0.0080
2134.00,0.0078
2133.00,0.0078
2132.00,0.0080
2131.00,0.0082
2130.00,0.0085
2129.00,0.0087
2128.00,0.0090
2127.00,0.0093
2126.00,0.0095
2125.00,0.0095
2124.00,0.0095
2123.00,0.0095
2122.00,0.0096
2121.00,0.0098
2120.00,0.0100
2119.00,0.0102
2118.00,0.0103
2117.00,0.0104
2116.00,0.0106
2115.00,0.0108
2114.00,0.0109
2113.00,0.0110
2112.00,0.0111
2111.00,0.0111
2110.00,0.0111
2109.00,0.0111
2108.00,0.0111
2107.00,0.0112
2106.00,0.0112
2105.00,0.0112
2104.00,0.0112
2103.00,0.0112
2102.00,0.0112
2101.00,0.0111
2100.00,0.0111
2099.00,0.0111
2098.00,0.0109
2097.00,0.0107
2096.00,0.0104
2095.00,0.0101
2094.00,0.0099
2093.00,0.0098
2092.00,0.0099
2091.00,0.0101
2090.00,0.0104
2089.00,0.0107
2088.00,0.0110
2087.00,0.0112
2086.00,0.0112
2085.00,0.0111
2084.00,0.0110
2083.00,0.0108
2082.00,0.0107
2081.00,0.0106
2080.00,0.0107
2079.00,0.0107
2078.00,0.0106
2077.00,0.0105
2076.00,0.0104
2075.00,0.0102
2074.00,0.0100
2073.00,0.0100
2072.00,0.0100
2071.00,0.0101
2070.00,0.0101
2069.00,0.0103
2068.00,0.0104
2067.00,0.0104
2066.00,0.0101
2065.00,0.0097
2064.00,0.0094
2063.00,0.0092
2062.00,0.0091
2061.00,0.0091
2060.00,0.0092
2059.00,0.0092
2058.00,0.0091
2057.00,0.0091
2056.00,0.0091
2055.00,0.0092
2054.00,0.0093
2053.00,0.0097
2052.00,0.0100
2051.00,0.0101
2050.00,0.0099
2049.00,0.0095
2048.00,0.0091
2047.00,0.0089
2046.00,0.0088
2045.00,0.0087
2044.00,0.0086
2043.00,0.0086
2042.00,0.0085
2041.00,0.0084
2040.00,0.0083
2039.00,0.0081
2038.00,0.0079
2037.00,0.0078
2036.00,0.0079
2035.00,0.0078
2034.00,0.0076
2033.00,0.0074
2032.00,0.0072
2031.00,0.0071
2030.00,0.0069
2029.00,0.0068
2028.00,0.0067
2027.00,0.0066
2026.00,0.0064
2025.00,0.0063
2024.00,0.0064
2023.00,0.0065
2022.00,0.0066
2021.00,0.0068
2020.00,0.0069
2019.00,0.0068
2018.00,0.0065
2017.00,0.0061
2016.00,0.0060
2015.00,0.0060
2014.00,0.0061
2013.00,0.0065
2012.00,0.0068
2011.00,0.0070
2010.00,0.0069
2009.00,0.0068
2008.00,0.0065
2007.00,0.0061
2006.00,0.0056
2005.00,0.0054
2004.00,0.0054
2003.00,0.0056
2002.00,0.0057
2001.00,0.0060
2000.00,0.0063
1999.00,0.0067
1998.00,0.0069
1997.00,0.0073
1996.00,0.0077
1995.00,0.0079
1994.00,0.0079
1993.00,0.0078
1992.00,0.0078
1991.00,0.0077
1990.00,0.0076
1989.00,0.0076
1988.00,0.0076
1987.00,0.0077
1986.00,0.0078
1985.00,0.0081
1984.00,0.0083
1983.00,0.0085
1982.00,0.0087
1981.00,0.0089
1980.00,0.0089
1979.00,0.0084
1978.00,0.0074
1977.00,0.0065
1976.00,0.0059
1975.00,0.0057
1974.00,0.0054
1973.00,0.0053
1972.00,0.0053
1971.00,0.0052
1970.00,0.0051
1969.00,0.0050
1968.00,0.0050
1967.00,0.0050
1966.00,0.0051
1965.00,0.0053
1964.00,0.0058
1963.00,0.0062
1962.00,0.0063
1961.00,0.0061
1960.00,0.0059
1959.00,0.0057
1958.00,0.0056
1957.00,0.0057
1956.00,0.0058
1955.00,0.0060
1954.00,0.0060
1953.00,0.0061
1952.00,0.0062
1951.00,0.0062
1950.00,0.0061
1949.00,0.0061
1948.00,0.0062
1947.00,0.0064
1946.00,0.0065
1945.00,0.0066
1944.00,0.0066
1943.00,0.0064
1942.00,0.0062
1941.00,0.0060
1940.00,0.0061
1939.00,0.0062
1938.00,0.0062
1937.00,0.0061
1936.00,0.0060
1935.00,0.0059
1934.00,0.0058
1933.00,0.0059
1932.00,0.0060
1931.00,0.0060
1930.00,0.0061
1929.00,0.0062
1928.00,0.0064
1927.00,0.0065
1926.00,0.0066
1925.00,0.0067
1924.00,0.0067
1923.00,0.0067
1922.00,0.0065
1921.00,0.0066
1920.00,0.0067
1919.00,0.0068
1918.00,0.0066
1917.00,0.0063
1916.00,0.0062
1915.00,0.0063
1914.00,0.0064
1913.00,0.0066
1912.00,0.0067
1911.00,0.0067
1910.00,0.0066
1909.00,0.0065
1908.00,0.0064
1907.00,0.0063
1906.00,0.0063
1905.00,0.0063
1904.00,0.0063
1903.00,0.0063
1902.00,0.0062
1901.00,0.0062
1900.00,0.0063
1899.00,0.0063
1898.00,0.0064
1897.00,0.0065
1896.00,0.0066
1895.00,0.0065
1894.00,0.0063
1893.00,0.0063
1892.00,0.0063
1891.00,0.0064
1890.00,0.0062
1889.00,0.0060
1888.00,0.0058
1887.00,0.0058
1886.00,0.0058
1885.00,0.0058
1884.00,0.0058
1883.00,0.0058
1882.00,0.0058
1881.00,0.0058
1880.00,0.0058
1879.00,0.0057
1878.00,0.0056
1877.00,0.0056
1876.00,0.0056
1875.00,0.0056
1874.00,0.0056
1873.00,0.0058
1872.00,0.0060
1871.00,0.0063
1870.00,0.0059
1869.00,0.0054
1868.00,0.0055
1867.00,0.0054
1866.00,0.0054
1865.00,0.0053
1864.00,0.0054
1863.00,0.0054
1862.00,0.0054
1861.00,0.0054
1860.00,0.0054
1859.00,0.0054
1858.00,0.0053
1857.00,0.0053
1856.00,0.0053
1855.00,0.0053
1854.00,0.0053
1853.00,0.0053
1852.00,0.0053
1851.00,0.0053
1850.00,0.0053
1849.00,0.0053
1848.00,0.0053
1847.00,0.0053
1846.00,0.0052
1845.00,0.0051
1844.00,0.0052
1843.00,0.0052
1842.00,0.0053
1841.00,0.0054
1840.00,0.0054
1839.00,0.0054
1838.00,0.0053
1837.00,0.0053
1836.00,0.0054
1835.00,0.0054
1834.00,0.0055
1833.00,0.0055
1832.00,0.0054
1831.00,0.0054
1830.00,0.0054
1829.00,0.0055
1828.00,0.0056
1827.00,0.0055
1826.00,0.0056
1825.00,0.0054
1824.00,0.0053
1823.00,0.0053
1822.00,0.0053
1821.00,0.0054
1820.00,0.0053
1819.00,0.0052
1818.00,0.0051
1817.00,0.0050
1816.00,0.0050
1815.00,0.0051
1814.00,0.0053
1813.00,0.0056
1812.00,0.0057
1811.00,0.0057
1810.00,0.0055
1809.00,0.0053
1808.00,0.0053
1807.00,0.0053
1806.00,0.0053
1805.00,0.0053
1804.00,0.0052
1803.00,0.0053
1802.00,0.0053
1801.00,0.0053
1800.00,0.0054
1799.00,0.0054
1798.00,0.0054
1797.00,0.0054
1796.00,0.0054
1795.00,0.0054
1794.00,0.0053
1793.00,0.0053
1792.00,0.0052
1791.00,0.0052
1790.00,0.0052
1789.00,0.0052
1788.00,0.0052
1787.00,0.0052
1786.00,0.0052
1785.00,0.0052
1784.00,0.0053
1783.00,0.0053
1782.00,0.0053
1781.00,0.0053
1780.00,0.0053
1779.00,0.0053
1778.00,0.0052
1777.00,0.0052
1776.00,0.0051
1775.00,0.0051
1774.00,0.0051
1773.00,0.0052
1772.00,0.0053
1771.00,0.0054
1770.00,0.0054
1769.00,0.0054
1768.00,0.0054
1767.00,0.0054
1766.00,0.0054
1765.00,0.0053
1764.00,0.0054
1763.00,0.0054
1762.00,0.0054
1761.00,0.0056
1760.00,0.0056
1759.00,0.0057
1758.00,0.0059
1757.00,0.0060
1756.00,0.0060
1755.00,0.0061
1754.00,0.0065
1753.00,0.0069
1752.00,0.0072
1751.00,0.0075
1750.00,0.0077
1749.00,0.0080
1748.00,0.0083
1747.00,0.0085
1746.00,0.0086
1745.00,0.0088
1744.00,0.0090
1743.00,0.0093
1742.00,0.0096
1741.00,0.0099
1740.00,0.0099
1739.00,0.0098
1738.00,0.0099
1737.00,0.0102
1736.00,0.0107
1735.00,0.0108
1734.00,0.0103
1733.00,0.0098
1732.00,0.0100
1731.00,0.0105
1730.00,0.0109
1729.00,0.0110
1728.00,0.0112
1727.00,0.0114
1726.00,0.0116
1725.00,0.0119
1724.00,0.0122
1723.00,0.0125
1722.00,0.0129
1721.00,0.0135
1720.00,0.0141
1719.00,0.0146
1718.00,0.0147
1717.00,0.0147
1716.00,0.0149
1715.00,0.0152
1714.00,0.0156
1713.00,0.0160
1712.00,0.0165
1711.00,0.0170
1710.00,0.0176
1709.00,0.0182
1708.00,0.0191
1707.00,0.0200
1706.00,0.0207
1705.00,0.0214
1704.00,0.0222
1703.00,0.0229
1702.00,0.0238
1701.00,0.0248
1700.00,0.0259
1699.00,0.0271
1698.00,0.0283
1697.00,0.0296
1696.00,0.0309
1695.00,0.0322
1694.00,0.0334
1693.00,0.0349
1692.00,0.0364
1691.00,0.0379
1690.00,0.0394
1689.00,0.0411
1688.00,0.0426
1687.00,0.0439
1686.00,0.0453
1685.00,0.0475
1684.00,0.0503
1683.00,0.0529
1682.00,0.0547
1681.00,0.0561
1680.00,0.0574
1679.00,0.0587
1678.00,0.0599
1677.00,0.0613
1676.00,0.0632
1675.00,0.0656
1674.00,0.0679
1673.00,0.0698
1672.00,0.0714
1671.00,0.0730
1670.00,0.0752
1669.00,0.0778
1668.00,0.0801
1667.00,0.0819
1666.00,0.0831
1665.00,0.0843
1664.00,0.0860
1663.00,0.0884
1662.00,0.0911
1661.00,0.0935
1660.00,0.0954
1659.00,0.0968
1658.00,0.0979
1657.00,0.0985
1656.00,0.0985
1655.00,0.0986
1654.00,0.1004
1653.00,0.1053
1652.00,0.1101
1651.00,0.1121
1650.00,0.1120
1649.00,0.1112
1648.00,0.1110
1647.00,0.1121
1646.00,0.1140
1645.00,0.1154
1644.00,0.1158
1643.00,0.1156
1642.00,0.1151
1641.00,0.1146
1640.00,0.1142
1639.00,0.1138
1638.00,0.1131
1637.00,0.1128
1636.00,0.1136
1635.00,0.1151
1634.00,0.1158
1633.00,0.1151
1632.00,0.1135
1631.00,0.1117
1630.00,0.1099
1629.00,0.1084
1628.00,0.1073
1627.00,0.1061
1626.00,0.1047
1625.00,0.1029
1624.00,0.1012
1623.00,0.0996
1622.00,0.0981
1621.00,0.0963
1620.00,0.0940
1619.00,0.0915
1618.00,0.0889
1617.00,0.0868
1616.00,0.0852
1615.00,0.0836
1614.00,0.0817
1613.00,0.0795
1612.00,0.0770
1611.00,0.0747
1610.00,0.0726
1609.00,0.0706
1608.00,0.0687
1607.00,0.0668
1606.00,0.0649
1605.00,0.0631
1604.00,0.0613
1603.00,0.0596
1602.00,0.0580
1601.00,0.0564
1600.00,0.0548
1599.00,0.0533
1598.00,0.0519
1597.00,0.0505
1596.00,0.0492
1595.00,0.0480
1594.00,0.0469
1593.00,0.0457
1592.00,0.0446
1591.00,0.0435
1590.00,0.0426
1589.00,0.0417
1588.00,0.0409
1587.00,0.0401
1586.00,0.0394
1585.00,0.0388
1584.00,0.0382
1583.00,0.0376
1582.00,0.0372
1581.00,0.0369
1580.00,0.0365
1579.00,0.0362
1578.00,0.0359
1577.00,0.0357
1576.00,0.0355
1575.00,0.0354
1574.00,0.0355
1573.00,0.0355
1572.00,0.0355
1571.00,0.0354
1570.00,0.0356
1569.00,0.0357
1568.00,0.0358
1567.00,0.0359
1566.00,0.0361
1565.00,0.0364
1564.00,0.0365
1563.00,0.0367
1562.00,0.0367
1561.00,0.0367
1560.00,0.0373
1559.00,0.0387
1558.00,0.0402
1557.00,0.0409
1556.00,0.0411
1555.00,0.0411
1554.00,0.0412
1553.00,0.0414
1552.00,0.0416
1551.00,0.0418
1550.00,0.0419
1549.00,0.0420
1548.00,0.0420
1547.00,0.0418
1546.00,0.0417
1545.00,0.0415
1544.00,0.0416
1543.00,0.0416
1542.00,0.0416
1541.00,0.0414
1540.00,0.0409
1539.00,0.0401
1538.00,0.0392
1537.00,0.0386
1536.00,0.0380
1535.00,0.0373
1534.00,0.0364
1533.00,0.0355
1532.00,0.0347
1531.00,0.0340
1530.00,0.0333
1529.00,0.0326
1528.00,0.0319
1527.00,0.0311
1526.00,0.0304
1525.00,0.0298
1524.00,0.0293
1523.00,0.0287
1522.00,0.0279
1521.00,0.0271
1520.00,0.0265
1519.00,0.0261
1518.00,0.0256
1517.00,0.0248
1516.00,0.0238
1515.00,0.0227
1514.00,0.0218
1513.00,0.0209
1512.00,0.0200
1511.00,0.0192
1510.00,0.0187
1509.00,0.0182
1508.00,0.0177
1507.00,0.0166
1506.00,0.0151
1505.00,0.0139
1504.00,0.0132
1503.00,0.0128
1502.00,0.0124
1501.00,0.0120
1500.00,0.0115
1499.00,0.0110
1498.00,0.0104
1497.00,0.0096
1496.00,0.0090
1495.00,0.0086
1494.00,0.0084
1493.00,0.0084
1492.00,0.0085
1491.00,0.0084
1490.00,0.0082
1489.00,0.0080
1488.00,0.0078
1487.00,0.0076
1486.00,0.0073
1485.00,0.0073
1484.00,0.0073
1483.00,0.0076
1482.00,0.0078
1481.00,0.0081
1480.00,0.0084
1479.00,0.0087
1478.00,0.0091
1477.00,0.0096
1476.00,0.0102
1475.00,0.0107
1474.00,0.0113
1473.00,0.0118
1472.00,0.0123
1471.00,0.0126
1470.00,0.0130
1469.00,0.0133
1468.00,0.0135
1467.00,0.0137
1466.00,0.0139
1465.00,0.0141
1464.00,0.0143
1463.00,0.0146
1462.00,0.0149
1461.00,0.0153
1460.00,0.0157
1459.00,0.0160
1458.00,0.0162
1457.00,0.0163
1456.00,0.0164
1455.00,0.0168
1454.00,0.0171
1453.00,0.0172
1452.00,0.0171
1451.00,0.0170
1450.00,0.0170
1449.00,0.0170
1448.00,0.0170
1447.00,0.0171
1446.00,0.0171
1445.00,0.0170
1444.00,0.0170
1443.00,0.0170
1442.00,0.0170
1441.00,0.0170
1440.00,0.0171
1439.00,0.0171
1438.00,0.0170
1437.00,0.0171
1436.00,0.0173
1435.00,0.0177
1434.00,0.0180
1433.00,0.0182
1432.00,0.0184
1431.00,0.0186
1430.00,0.0188
1429.00,0.0190
1428.00,0.0191
1427.00,0.0193
1426.00,0.0195
1425.00,0.0197
1424.00,0.0199
1423.00,0.0201
1422.00,0.0202
1421.00,0.0201
1420.00,0.0201
1419.00,0.0203
1418.00,0.0205
1417.00,0.0207
1416.00,0.0208
1415.00,0.0207
1414.00,0.0205
1413.00,0.0203
1412.00,0.0201
1411.00,0.0199
1410.00,0.0198
1409.00,0.0196
1408.00,0.0194
1407.00,0.0192
1406.00,0.0190
1405.00,0.0187
1404.00,0.0184
1403.00,0.0181
1402.00,0.0178
1401.00,0.0175
1400.00,0.0171
1399.00,0.0168
1398.00,0.0164
1397.00,0.0161
1396.00,0.0157
1395.00,0.0154
1394.00,0.0151
1393.00,0.0149
1392.00,0.0148
1391.00,0.0148
1390.00,0.0148
1389.00,0.0149
1388.00,0.0151
1387.00,0.0155
1386.00,0.0159
1385.00,0.0164
1384.00,0.0169
1383.00,0.0173
1382.00,0.0176
1381.00,0.0178
1380.00,0.0180
1379.00,0.0182
1378.00,0.0183
1377.00,0.0184
1376.00,0.0184
1375.00,0.0182
1374.00,0.0180
1373.00,0.0177
1372.00,0.0173
1371.00,0.0169
1370.00,0.0164
1369.00,0.0160
1368.00,0.0155
1367.00,0.0151
1366.00,0.0147
1365.00,0.0143
1364.00,0.0139
1363.00,0.0136
1362.00,0.0134
1361.00,0.0132
1360.00,0.0131
1359.00,0.0130
1358.00,0.0129
1357.00,0.0128
1356.00,0.0127
1355.00,0.0126
1354.00,0.0124
1353.00,0.0122
1352.00,0.0119
1351.00,0.0116
1350.00,0.0113
1349.00,0.0109
1348.00,0.0105
1347.00,0.0101
1346.00,0.0097
1345.00,0.0093
1344.00,0.0089
1343.00,0.0085
1342.00,0.0082
1341.00,0.0079
1340.00,0.0076
1339.00,0.0074
1338.00,0.0072
1337.00,0.0070
1336.00,0.0067
1335.00,0.0065
1334.00,0.0062
1333.00,0.0060
1332.00,0.0058
1331.00,0.0056
1330.00,0.0055
1329.00,0.0054
1328.00,0.0053
1327.00,0.0053
1326.00,0.0054
1325.00,0.0053
1324.00,0.0053
1323.00,0.0053
1322.00,0.0053
1321.00,0.0053
1320.00,0.0053
1319.00,0.0053
1318.00,0.0053
1317.00,0.0053
1316.00,0.0053
1315.00,0.0052
1314.00,0.0052
1313.00,0.0052
1312.00,0.0051
1311.00,0.0051
1310.00,0.0052
1309.00,0.0052
1308.00,0.0053
1307.00,0.0055
1306.00,0.0056
1305.00,0.0059
1304.00,0.0062
1303.00,0.0065
1302.00,0.0069
1301.00,0.0073
1300.00,0.0078
1299.00,0.0083
1298.00,0.0090
1297.00,0.0098
1296.00,0.0106
1295.00,0.0115
1294.00,0.0125
1293.00,0.0135
1292.00,0.0147
1291.00,0.0159
1290.00,0.0171
1289.00,0.0185
1288.00,0.0199
1287.00,0.0215
1286.00,0.0232
1285.00,0.0249
1284.00,0.0267
1283.00,0.0286
1282.00,0.0305
1281.00,0.0325
1280.00,0.0347
1279.00,0.0368
1278.00,0.0390
1277.00,0.0413
1276.00,0.0436
1275.00,0.0460
1274.00,0.0484
1273.00,0.0509
1272.00,0.0533
1271.00,0.0558
1270.00,0.0581
1269.00,0.0604
1268.00,0.0627
1267.00,0.0648
1266.00,0.0668
1265.00,0.0688
1264.00,0.0707
1263.00,0.0725
1262.00,0.0741
1261.00,0.0758
1260.00,0.0773
1259.00,0.0788
1258.00,0.0801
1257.00,0.0813
1256.00,0.0824
1255.00,0.0833
1254.00,0.0842
1253.00,0.0850
1252.00,0.0858
1251.00,0.0866
1250.00,0.0872
1249.00,0.0878
1248.00,0.0883
1247.00,0.0889
1246.00,0.0894
1245.00,0.0899
1244.00,0.0904
1243.00,0.0909
1242.00,0.0915
1241.00,0.0921
1240.00,0.0928
1239.00,0.0936
1238.00,0.0944
1237.00,0.0953
1236.00,0.0964
1235.00,0.0974
1234.00,0.0984
1233.00,0.0995
1232.00,0.1005
1231.00,0.1015
1230.00,0.1024
1229.00,0.1033
1228.00,0.1041
1227.00,0.1049
1226.00,0.1056
1225.00,0.1062
1224.00,0.1067
1223.00,0.1071
1222.00,0.1073
1221.00,0.1074
1220.00,0.1074
1219.00,0.1072
1218.00,0.1068
1217.00,0.1063
1216.00,0.1056
1215.00,0.1047
1214.00,0.1036
1213.00,0.1023
1212.00,0.1009
1211.00,0.0993
1210.00,0.0975
1209.00,0.0957
1208.00,0.0937
1207.00,0.0915
1206.00,0.0893
1205.00,0.0871
1204.00,0.0849
1203.00,0.0828
1202.00,0.0807
1201.00,0.0787
1200.00,0.0769
1199.00,0.0752
1198.00,0.0737
1197.00,0.0726
1196.00,0.0716
1195.00,0.0707
1194.00,0.0700
1193.00,0.0692
1192.00,0.0683
1191.00,0.0673
1190.00,0.0661
1189.00,0.0647
1188.00,0.0631
1187.00,0.0615
1186.00,0.0599
1185.00,0.0583
1184.00,0.0569
1183.00,0.0558
1182.00,0.0549
1181.00,0.0542
1180.00,0.0539
1179.00,0.0537
1178.00,0.0537
1177.00,0.0540
1176.00,0.0544
1175.00,0.0551
1174.00,0.0559
1173.00,0.0570
1172.00,0.0582
1171.00,0.0596
1170.00,0.0613
1169.00,0.0631
1168.00,0.0651
1167.00,0.0671
1166.00,0.0692
1165.00,0.0714
1164.00,0.0735
1163.00,0.0756
1162.00,0.0776
1161.00,0.0793
1160.00,0.0809
1159.00,0.0822
1158.00,0.0832
1157.00,0.0840
1156.00,0.0845
1155.00,0.0847
1154.00,0.0846
1153.00,0.0841
1152.00,0.0834
1151.00,0.0824
1150.00,0.0810
1149.00,0.0794
1148.00,0.0777
1147.00,0.0758
1146.00,0.0737
1145.00,0.0716
1144.00,0.0695
1143.00,0.0674
1142.00,0.0655
1141.00,0.0638
1140.00,0.0624
1139.00,0.0614
1138.00,0.0607
1137.00,0.0606
1136.00,0.0609
1135.00,0.0616
1134.00,0.0628
1133.00,0.0643
1132.00,0.0660
1131.00,0.0677
1130.00,0.0694
1129.00,0.0708
1128.00,0.0721
1127.00,0.0729
1126.00,0.0733
1125.00,0.0733
1124.00,0.0729
1123.00,0.0721
1122.00,0.0711
1121.00,0.0701
1120.00,0.0690
1119.00,0.0680
1118.00,0.0669
1117.00,0.0660
1116.00,0.0651
1115.00,0.0643
1114.00,0.0635
1113.00,0.0629
1112.00,0.0624
1111.00,0.0620
1110.00,0.0618
1109.00,0.0618
1108.00,0.0620
1107.00,0.0625
1106.00,0.0632
1105.00,0.0642
1104.00,0.0655
1103.00,0.0671
1102.00,0.0690
1101.00,0.0710
1100.00,0.0733
1099.00,0.0756
1098.00,0.0780
1097.00,0.0804
1096.00,0.0827
1095.00,0.0850
1094.00,0.0872
1093.00,0.0893
1092.00,0.0915
1091.00,0.0937
1090.00,0.0960
1089.00,0.0985
1088.00,0.1012
1087.00,0.1041
1086.00,0.1072
1085.00,0.1105
1084.00,0.1139
1083.00,0.1173
1082.00,0.1208
1081.00,0.1245
1080.00,0.1284
1079.00,0.1324
1078.00,0.1363
1077.00,0.1402
1076.00,0.1440
1075.00,0.1475
1074.00,0.1507
1073.00,0.1538
1072.00,0.1567
1071.00,0.1594
1070.00,0.1618
1069.00,0.1638
1068.00,0.1653
1067.00,0.1662
1066.00,0.1665
1065.00,0.1661
1064.00,0.1651
1063.00,0.1636
1062.00,0.1616
1061.00,0.1594
1060.00,0.1573
1059.00,0.1553
1058.00,0.1537
1057.00,0.1527
1056.00,0.1521
1055.00,0.1518
1054.00,0.1520
1053.00,0.1527
1052.00,0.1538
1051.00,0.1554
1050.00,0.1573
1049.00,0.1596
1048.00,0.1620
1047.00,0.1645
1046.00,0.1670
1045.00,0.1696
1044.00,0.1720
1043.00,0.1742
1042.00,0.1760
1041.00,0.1774
1040.00,0.1784
1039.00,0.1790
1038.00,0.1791
1037.00,0.1788
1036.00,0.1783
1035.00,0.1775
1034.00,0.1766
1033.00,0.1758
1032.00,0.1751
1031.00,0.1743
1030.00,0.1732
1029.00,0.1718
1028.00,0.1700
1027.00,0.1677
1026.00,0.1648
1025.00,0.1612
1024.00,0.1571
1023.00,0.1525
1022.00,0.1476
1021.00,0.1426
1020.00,0.1376
1019.00,0.1327
1018.00,0.1279
1017.00,0.1234
1016.00,0.1193
1015.00,0.1155
1014.00,0.1121
1013.00,0.1091
1012.00,0.1068
1011.00,0.1048
1010.00,0.1032
1009.00,0.1018
1008.00,0.1006
1007.00,0.0995
1006.00,0.0983
1005.00,0.0970
1004.00,0.0952
1003.00,0.0927
1002.00,0.0895
1001.00,0.0857
1000.00,0.0816
999.00,0.0773
998.00,0.0731
997.00,0.0691
996.00,0.0657
995.00,0.0627
994.00,0.0603
993.00,0.0585
992.00,0.0569
991.00,0.0556
990.00,0.0544
989.00,0.0531
988.00,0.0518
987.00,0.0503
986.00,0.0486
985.00,0.0469
984.00,0.0454
983.00,0.0441
982.00,0.0431
981.00,0.0425
980.00,0.0421
979.00,0.0418
978.00,0.0417
977.00,0.0416
976.00,0.0416
975.00,0.0415
974.00,0.0414
973.00,0.0412
972.00,0.0409
971.00,0.0404
970.00,0.0396
969.00,0.0383
968.00,0.0365
967.00,0.0340
966.00,0.0309
965.00,0.0275
964.00,0.0239
963.00,0.0203
962.00,0.0170
961.00,0.0140
960.00,0.0115
959.00,0.0093
958.00,0.0074
957.00,0.0061
956.00,0.0051
955.00,0.0044
954.00,0.0041
953.00,0.0040
952.00,0.0043
951.00,0.0047
950.00,0.0054
949.00,0.0063
948.00,0.0075
947.00,0.0090
946.00,0.0109
945.00,0.0132
944.00,0.0159
943.00,0.0190
942.00,0.0226
941.00,0.0267
940.00,0.0312
939.00,0.0362
938.00,0.0415
937.00,0.0470
936.00,0.0525
935.00,0.0578
934.00,0.0627
933.00,0.0672
932.00,0.0710
931.00,0.0741
930.00,0.0766
929.00,0.0784
928.00,0.0796
927.00,0.0801
926.00,0.0800
925.00,0.0794
924.00,0.0783
923.00,0.0769
922.00,0.0750
921.00,0.0729
920.00,0.0706
919.00,0.0680
918.00,0.0652
917.00,0.0621
916.00,0.0589
915.00,0.0555
914.00,0.0520
913.00,0.0485
912.00,0.0451
911.00,0.0419
910.00,0.0388
909.00,0.0361
908.00,0.0337
907.00,0.0316
906.00,0.0298
905.00,0.0283
904.00,0.0271
903.00,0.0261
902.00,0.0253
901.00,0.0247
900.00,0.0242
899.00,0.0239
898.00,0.0237
897.00,0.0236
896.00,0.0236
895.00,0.0237
894.00,0.0239
893.00,0.0240
892.00,0.0240
891.00,0.0239
890.00,0.0235
889.00,0.0230
888.00,0.0221
887.00,0.0209
886.00,0.0194
885.00,0.0174
884.00,0.0152
883.00,0.0128
882.00,0.0104
881.00,0.0083
880.00,0.0066
879.00,0.0053
878.00,0.0044
877.00,0.0041
876.00,0.0041
875.00,0.0045
874.00,0.0049
873.00,0.0054
872.00,0.0059
871.00,0.0061
870.00,0.0062
869.00,0.0062
868.00,0.0063
867.00,0.0064
866.00,0.0068
865.00,0.0075
864.00,0.0085
863.00,0.0099
862.00,0.0115
861.00,0.0134
860.00,0.0155
859.00,0.0178
858.00,0.0203
857.00,0.0230
856.00,0.0260
855.00,0.0293
854.00,0.0326
853.00,0.0359
852.00,0.0392
851.00,0.0421
850.00,0.0447
849.00,0.0469
848.00,0.0485
847.00,0.0493
846.00,0.0495
845.00,0.0489
844.00,0.0475
843.00,0.0455
842.00,0.0429
841.00,0.0400
840.00,0.0368
839.00,0.0336
838.00,0.0304
837.00,0.0273
836.00,0.0243
835.00,0.0216
834.00,0.0190
833.00,0.0167
832.00,0.0146
831.00,0.0128
830.00,0.0113
829.00,0.0099
828.00,0.0088
827.00,0.0079
826.00,0.0071
825.00,0.0065
824.00,0.0060
823.00,0.0056
822.00,0.0053
821.00,0.0051
820.00,0.0049
819.00,0.0047
818.00,0.0046
817.00,0.0047
816.00,0.0049
815.00,0.0052
814.00,0.0055
813.00,0.0058
812.00,0.0062
811.00,0.0068
810.00,0.0075
809.00,0.0081
808.00,0.0087
807.00,0.0092
806.00,0.0095
805.00,0.0097
804.00,0.0100
803.00,0.0101
802.00,0.0102
801.00,0.0101
800.00,0.0100
799.00,0.0097
798.00,0.0094
797.00,0.0090
796.00,0.0086
795.00,0.0080
794.00,0.0075
793.00,0.0070
792.00,0.0066
791.00,0.0062
790.00,0.0058
789.00,0.0054
788.00,0.0052
787.00,0.0050
786.00,0.0049
785.00,0.0049
784.00,0.0049
783.00,0.0050
782.00,0.0052
781.00,0.0056
780.00,0.0062
779.00,0.0069
778.00,0.0077
777.00,0.0086
776.00,0.0095
775.00,0.0103
774.00,0.0108
773.00,0.0112
772.00,0.0114
771.00,0.0112
770.00,0.0107
769.00,0.0100
768.00,0.0092
767.00,0.0084
766.00,0.0075
765.00,0.0067
764.00,0.0060
763.00,0.0055
762.00,0.0051
761.00,0.0048
760.00,0.0046
759.00,0.0045
758.00,0.0045
757.00,0.0047
756.00,0.0050
755.00,0.0056
754.00,0.0064
753.00,0.0074
752.00,0.0087
751.00,0.0102
750.00,0.0119
749.00,0.0138
748.00,0.0157
747.00,0.0175
746.00,0.0192
745.00,0.0207
744.00,0.0221
743.00,0.0234
742.00,0.0245
741.00,0.0255
740.00,0.0265
739.00,0.0273
738.00,0.0280
737.00,0.0285
736.00,0.0288
735.00,0.0289
734.00,0.0289
733.00,0.0289
732.00,0.0287
731.00,0.0284
730.00,0.0280
729.00,0.0278
728.00,0.0278
727.00,0.0278
726.00,0.0278
725.00,0.0276
724.00,0.0274
723.00,0.0271
722.00,0.0267
721.00,0.0263
720.00,0.0259
719.00,0.0257
718.00,0.0255
717.00,0.0256
716.00,0.0258
715.00,0.0261
714.00,0.0266
713.00,0.0273
712.00,0.0283
711.00,0.0295
710.00,0.0308
709.00,0.0322
708.00,0.0338
707.00,0.0353
706.00,0.0366
705.00,0.0379
704.00,0.0391
703.00,0.0400
702.00,0.0404
701.00,0.0405
700.00,0.0403
699.00,0.0397
698.00,0.0389
697.00,0.0378
696.00,0.0366
695.00,0.0352
694.00,0.0337
693.00,0.0321
692.00,0.0305
691.00,0.0286
690.00,0.0268
689.00,0.0251
688.00,0.0235
687.00,0.0221
686.00,0.0208
685.00,0.0198
684.00,0.0188
683.00,0.0179
682.00,0.0170
681.00,0.0163
680.00,0.0158
679.00,0.0154
678.00,0.0151
677.00,0.0152
676.00,0.0155
675.00,0.0159
674.00,0.0162
673.00,0.0165
672.00,0.0163
671.00,0.0153
670.00,0.0142
669.00,0.0143
668.00,0.0168
667.00,0.0198
666.00,0.0207
665.00,0.0198
664.00,0.0187
663.00,0.0182
662.00,0.0181
661.00,0.0182
660.00,0.0184
659.00,0.0186
658.00,0.0189
657.00,0.0190
656.00,0.0190
655.00,0.0189
654.00,0.0187
653.00,0.0184
652.00,0.0181
651.00,0.0177
650.00,0.0173
649.00,0.0167
648.00,0.0161
647.00,0.0155
646.00,0.0147
645.00,0.0139
644.00,0.0133
643.00,0.0127
642.00,0.0122
641.00,0.0117
640.00,0.0113
639.00,0.0111
638.00,0.0109
637.00,0.0108
636.00,0.0109
635.00,0.0112
634.00,0.0115
633.00,0.0119
632.00,0.0124
631.00,0.0131
630.00,0.0137
629.00,0.0142
628.00,0.0148
627.00,0.0155
626.00,0.0163
625.00,0.0174
624.00,0.0188
623.00,0.0201
622.00,0.0211
621.00,0.0218
620.00,0.0224
619.00,0.0232
618.00,0.0242
617.00,0.0254
616.00,0.0265
615.00,0.0275
614.00,0.0284
613.00,0.0295
612.00,0.0309
611.00,0.0324
610.00,0.0338
609.00,0.0350
608.00,0.0360
607.00,0.0368
606.00,0.0376
605.00,0.0386
604.00,0.0396
603.00,0.0403
602.00,0.0408
601.00,0.0411
600.00,0.0416
599.00,0.0421
598.00,0.0424
597.00,0.0423
596.00,0.0420
595.00,0.0415
594.00,0.0407
593.00,0.0400
592.00,0.0395
591.00,0.0394
590.00,0.0393
589.00,0.0392
588.00,0.0391
587.00,0.0393
586.00,0.0398
585.00,0.0407
584.00,0.0419
583.00,0.0429
582.00,0.0436
581.00,0.0441
580.00,0.0448
579.00,0.0456
578.00,0.0462
577.00,0.0466
576.00,0.0471
575.00,0.0473
574.00,0.0470
573.00,0.0462
572.00,0.0454
571.00,0.0445
570.00,0.0437
569.00,0.0430
568.00,0.0423
567.00,0.0416
566.00,0.0408
565.00,0.0400
564.00,0.0395
563.00,0.0390
562.00,0.0383
561.00,0.0376
560.00,0.0370
559.00,0.0366
558.00,0.0361
557.00,0.0355
556.00,0.0351
555.00,0.0346
554.00,0.0342
553.00,0.0338
552.00,0.0337
551.00,0.0336
550.00,0.0335
549.00,0.0336
548.00,0.0337
547.00,0.0338
546.00,0.0337
545.00,0.0338
544.00,0.0341
543.00,0.0342
542.00,0.0340
541.00,0.0339
540.00,0.0340
539.00,0.0342
538.00,0.0339
537.00,0.0332
536.00,0.0326
535.00,0.0320
534.00,0.0313
533.00,0.0305
532.00,0.0298
531.00,0.0293
530.00,0.0291
529.00,0.0290
528.00,0.0288
527.00,0.0283
526.00,0.0278
525.00,0.0277
524.00,0.0283
523.00,0.0291
522.00,0.0296
521.00,0.0298
520.00,0.0297
519.00,0.0295
518.00,0.0291
517.00,0.0285
516.00,0.0278
515.00,0.0271
514.00,0.0264
513.00,0.0260
512.00,0.0259
511.00,0.0254
510.00,0.0245
509.00,0.0233
508.00,0.0225
507.00,0.0220
506.00,0.0216
505.00,0.0212
504.00,0.0210
503.00,0.0206
502.00,0.0198
501.00,0.0190
500.00,0.0186
499.00,0.0182
498.00,0.0176
497.00,0.0170
496.00,0.0168
495.00,0.0168
494.00,0.0168
493.00,0.0171
492.00,0.0177
491.00,0.0182
490.00,0.0182
489.00,0.0176
488.00,0.0166
487.00,0.0154
486.00,0.0142
485.00,0.0138
484.00,0.0143
483.00,0.0151
482.00,0.0155
481.00,0.0154
480.00,0.0151
479.00,0.0146
478.00,0.0139
477.00,0.0136
476.00,0.0137
475.00,0.0137
474.00,0.0133
473.00,0.0132
472.00,0.0139
471.00,0.0146
470.00,0.0148
469.00,0.0148
468.00,0.0153
467.00,0.0157
466.00,0.0153
465.00,0.0143
464.00,0.0135
463.00,0.0131
462.00,0.0126
461.00,0.0119
460.00,0.0115
459.00,0.0113
458.00,0.0111
457.00,0.0103
456.00,0.0088
455.00,0.0069
454.00,0.0052
453.00,0.0047
452.00,0.0055
451.00,0.0062
450.00,0.0060
