Created as New Dataset,Sample 004 By Administrator Date Thursday, May 29 2025
cm-1,A
4000.00,0.0067
3999.00,0.0067
3998.00,0.0067
3997.00,0.0068
3996.00,0.0068
3995.00,0.0068
3994.00,0.0068
3993.00,0.0068
3992.00,0.0068
3991.00,0.0069
3990.00,0.0069
3989.00,0.0069
3988.00,0.0069
3987.00,0.0069
3986.00,0.0069
3985.00,0.0068
3984.00,0.0068
3983.00,0.0068
3982.00,0.0068
3981.00,0.0068
3980.00,0.0069
3979.00,0.0069
3978.00,0.0069
3977.00,0.0069
3976.00,0.0069
3975.00,0.0069
3974.00,0.0068
3973.00,0.0068
3972.00,0.0068
3971.00,0.0068
3970.00,0.0067
3969.00,0.0067
3968.00,0.0068
3967.00,0.0068
3966.00,0.0068
3965.00,0.0069
3964.00,0.0069
3963.00,0.0069
3962.00,0.0069
3961.00,0.0069
3960.00,0.0069
3959.00,0.0069
3958.00,0.0069
3957.00,0.0069
3956.00,0.0069
3955.00,0.0069
3954.00,0.0069
3953.00,0.0070
3952.00,0.0070
3951.00,0.0070
3950.00,0.0070
3949.00,0.0070
3948.00,0.0070
3947.00,0.0070
3946.00,0.0070
3945.00,0.0070
3944.00,0.0070
3943.00,0.0070
3942.00,0.0069
3941.00,0.0069
3940.00,0.0068
3939.00,0.0068
3938.00,0.0069
3937.00,0.0069
3936.00,0.0069
3935.00,0.0070
3934.00,0.0070
3933.00,0.0070
3932.00,0.0070
3931.00,0.0070
3930.00,0.0070
3929.00,0.0071
3928.00,0.0071
3927.00,0.0071
3926.00,0.0071
3925.00,0.0070
3924.00,0.0070
3923.00,0.0069
3922.00,0.0069
3921.00,0.0069
3920.00,0.0069
3919.00,0.0069
3918.00,0.0069
3917.00,0.0069
3916.00,0.0068
3915.00,0.0068
3914.00,0.0067
3913.00,0.0068
3912.00,0.0068
3911.00,0.0068
3910.00,0.0068
3909.00,0.0069
3908.00,0.0069
3907.00,0.0069
3906.00,0.0069
3905.00,0.0069
3904.00,0.0069
3903.00,0.0069
3902.00,0.0069
3901.00,0.0069
3900.00,0.0068
3899.00,0.0068
3898.00,0.0067
3897.00,0.0067
3896.00,0.0067
3895.00,0.0068
3894.00,0.0068
3893.00,0.0068
3892.00,0.0068
3891.00,0.0068
3890.00,0.0067
3889.00,0.0067
3888.00,0.0067
3887.00,0.0068
3886.00,0.0067
3885.00,0.0067
3884.00,0.0067
3883.00,0.0068
3882.00,0.0068
3881.00,0.0068
3880.00,0.0067
3879.00,0.0067
3878.00,0.0068
3877.00,0.0068
3876.00,0.0068
3875.00,0.0069
3874.00,0.0069
3873.00,0.0069
3872.00,0.0069
3871.00,0.0069
3870.00,0.0068
3869.00,0.0067
3868.00,0.0067
3867.00,0.0068
3866.00,0.0068
3865.00,0.0069
3864.00,0.0069
3863.00,0.0069
3862.00,0.0068
3861.00,0.0068
3860.00,0.0068
3859.00,0.0068
3858.00,0.0067
3857.00,0.0066
3856.00,0.0065
3855.00,0.0065
3854.00,0.0065
3853.00,0.0064
3852.00,0.0064
3851.00,0.0064
3850.00,0.0065
3849.00,0.0066
3848.00,0.0066
3847.00,0.0067
3846.00,0.0067
3845.00,0.0067
3844.00,0.0067
3843.00,0.0067
3842.00,0.0067
3841.00,0.0068
3840.00,0.0068
3839.00,0.0068
3838.00,0.0067
3837.00,0.0066
3836.00,0.0066
3835.00,0.0066
3834.00,0.0066
3833.00,0.0067
3832.00,0.0067
3831.00,0.0067
3830.00,0.0068
3829.00,0.0068
3828.00,0.0068
3827.00,0.0068
3826.00,0.0068
3825.00,0.0067
3824.00,0.0067
3823.00,0.0067
3822.00,0.0068
3821.00,0.0067
3820.00,0.0067
3819.00,0.0067
3818.00,0.0067
3817.00,0.0067
3816.00,0.0068
3815.00,0.0068
3814.00,0.0068
3813.00,0.0068
3812.00,0.0069
3811.00,0.0069
3810.00,0.0069
3809.00,0.0070
3808.00,0.0070
3807.00,0.0070
3806.00,0.0069
3805.00,0.0069
3804.00,0.0069
3803.00,0.0069
3802.00,0.0069
3801.00,0.0068
3800.00,0.0069
3799.00,0.0069
3798.00,0.0069
3797.00,0.0070
3796.00,0.0070
3795.00,0.0070
3794.00,0.0070
3793.00,0.0070
3792.00,0.0070
3791.00,0.0071
3790.00,0.0071
3789.00,0.0072
3788.00,0.0072
3787.00,0.0072
3786.00,0.0073
3785.00,0.0072
3784.00,0.0072
3783.00,0.0072
3782.00,0.0073
3781.00,0.0073
3780.00,0.0073
3779.00,0.0073
3778.00,0.0073
3777.00,0.0073
3776.00,0.0074
3775.00,0.0074
3774.00,0.0074
3773.00,0.0074
3772.00,0.0074
3771.00,0.0074
3770.00,0.0074
3769.00,0.0074
3768.00,0.0074
3767.00,0.0074
3766.00,0.0075
3765.00,0.0075
3764.00,0.0076
3763.00,0.0076
3762.00,0.0077
3761.00,0.0077
3760.00,0.0078
3759.00,0.0078
3758.00,0.0078
3757.00,0.0078
3756.00,0.0078
3755.00,0.0078
3754.00,0.0078
3753.00,0.0078
3752.00,0.0077
3751.00,0.0077
3750.00,0.0076
3749.00,0.0076
3748.00,0.0076
3747.00,0.0076
3746.00,0.0076
3745.00,0.0076
3744.00,0.0076
3743.00,0.0077
3742.00,0.0078
3741.00,0.0079
3740.00,0.0081
3739.00,0.0082
3738.00,0.0082
3737.00,0.0083
3736.00,0.0082
3735.00,0.0082
3734.00,0.0081
3733.00,0.0081
3732.00,0.0081
3731.00,0.0082
3730.00,0.0083
3729.00,0.0084
3728.00,0.0085
3727.00,0.0086
3726.00,0.0087
3725.00,0.0087
3724.00,0.0088
3723.00,0.0088
3722.00,0.0088
3721.00,0.0088
3720.00,0.0088
3719.00,0.0089
3718.00,0.0089
3717.00,0.0090
3716.00,0.0091
3715.00,0.0091
3714.00,0.0092
3713.00,0.0093
3712.00,0.0093
3711.00,0.0093
3710.00,0.0093
3709.00,0.0094
3708.00,0.0095
3707.00,0.0097
3706.00,0.0098
3705.00,0.0099
3704.00,0.0101
3703.00,0.0102
3702.00,0.0103
3701.00,0.0104
3700.00,0.0106
3699.00,0.0108
3698.00,0.0109
3697.00,0.0111
3696.00,0.0112
3695.00,0.0113
3694.00,0.0115
3693.00,0.0116
3692.00,0.0117
3691.00,0.0118
3690.00,0.0120
3689.00,0.0123
3688.00,0.0125
3687.00,0.0127
3686.00,0.0129
3685.00,0.0131
3684.00,0.0134
3683.00,0.0136
3682.00,0.0138
3681.00,0.0140
3680.00,0.0142
3679.00,0.0144
3678.00,0.0145
3677.00,0.0148
3676.00,0.0151
3675.00,0.0155
3674.00,0.0158
3673.00,0.0161
3672.00,0.0164
3671.00,0.0168
3670.00,0.0173
3669.00,0.0178
3668.00,0.0182
3667.00,0.0187
3666.00,0.0191
3665.00,0.0195
3664.00,0.0200
3663.00,0.0204
3662.00,0.0209
3661.00,0.0213
3660.00,0.0217
3659.00,0.0221
3658.00,0.0225
3657.00,0.0231
3656.00,0.0237
3655.00,0.0243
3654.00,0.0247
3653.00,0.0251
3652.00,0.0255
3651.00,0.0261
3650.00,0.0269
3649.00,0.0278
3648.00,0.0286
3647.00,0.0294
3646.00,0.0301
3645.00,0.0307
3644.00,0.0313
3643.00,0.0319
3642.00,0.0325
3641.00,0.0331
3640.00,0.0338
3639.00,0.0344
3638.00,0.0351
3637.00,0.0357
3636.00,0.0366
3635.00,0.0373
3634.00,0.0381
3633.00,0.0388
3632.00,0.0395
3631.00,0.0402
3630.00,0.0409
3629.00,0.0418
3628.00,0.0422
3627.00,0.0431
3626.00,0.0440
3625.00,0.0446
3624.00,0.0452
3623.00,0.0458
3622.00,0.0463
3621.00,0.0470
3620.00,0.0478
3619.00,0.0487
3618.00,0.0496
3617.00,0.0504
3616.00,0.0511
3615.00,0.0517
3614.00,0.0524
3613.00,0.0531
3612.00,0.0539
3611.00,0.0547
3610.00,0.0555
3609.00,0.0564
3608.00,0.0573
3607.00,0.0581
3606.00,0.0589
3605.00,0.0596
3604.00,0.0602
3603.00,0.0608
3602.00,0.0614
3601.00,0.0622
3600.00,0.0629
3599.00,0.0636
3598.00,0.0643
3597.00,0.0650
3596.00,0.0657
3595.00,0.0665
3594.00,0.0672
3593.00,0.0680
3592.00,0.0686
3591.00,0.0691
3590.00,0.0698
3589.00,0.0705
3588.00,0.0714
3587.00,0.0724
3586.00,0.0734
3585.00,0.0742
3584.00,0.0748
3583.00,0.0754
3582.00,0.0759
3581.00,0.0765
3580.00,0.0770
3579.00,0.0777
3578.00,0.0784
3577.00,0.0791
3576.00,0.0798
3575.00,0.0804
3574.00,0.0811
3573.00,0.0817
3572.00,0.0822
3571.00,0.0826
3570.00,0.0831
3569.00,0.0837
3568.00,0.0845
3567.00,0.0854
3566.00,0.0864
3565.00,0.0872
3564.00,0.0879
3563.00,0.0885
3562.00,0.0891
3561.00,0.0896
3560.00,0.0902
3559.00,0.0908
3558.00,0.0914
3557.00,0.0921
3556.00,0.0927
3555.00,0.0933
3554.00,0.0940
3553.00,0.0947
3552.00,0.0953
3551.00,0.0960
3550.00,0.0965
3549.00,0.0971
3548.00,0.0977
3547.00,0.0984
3546.00,0.0992
3545.00,0.0999
3544.00,0.1006
3543.00,0.1012
3542.00,0.1018
3541.00,0.1023
3540.00,0.1029
3539.00,0.1035
3538.00,0.1040
3537.00,0.1046
3536.00,0.1052
3535.00,0.1058
3534.00,0.1064
3533.00,0.1069
3532.00,0.1074
3531.00,0.1080
3530.00,0.1086
3529.00,0.1093
3528.00,0.1100
3527.00,0.1107
3526.00,0.1114
3525.00,0.1121
3524.00,0.1127
3523.00,0.1133
3522.00,0.1139
3521.00,0.1144
3520.00,0.1149
3519.00,0.1154
3518.00,0.1160
3517.00,0.1166
3516.00,0.1173
3515.00,0.1178
3514.00,0.1184
3513.00,0.1189
3512.00,0.1195
3511.00,0.1201
3510.00,0.1207
3509.00,0.1214
3508.00,0.1220
3507.00,0.1225
3506.00,0.1231
3505.00,0.1237
3504.00,0.1243
3503.00,0.1250
3502.00,0.1257
3501.00,0.1263
3500.00,0.1268
3499.00,0.1274
3498.00,0.1279
3497.00,0.1285
3496.00,0.1291
3495.00,0.1297
3494.00,0.1302
3493.00,0.1307
3492.00,0.1311
3491.00,0.1316
3490.00,0.1322
3489.00,0.1328
3488.00,0.1334
3487.00,0.1340
3486.00,0.1345
3485.00,0.1350
3484.00,0.1355
3483.00,0.1361
3482.00,0.1368
3481.00,0.1375
3480.00,0.1380
3479.00,0.1385
3478.00,0.1389
3477.00,0.1394
3476.00,0.1399
3475.00,0.1404
3474.00,0.1410
3473.00,0.1416
3472.00,0.1422
3471.00,0.1428
3470.00,0.1434
3469.00,0.1439
3468.00,0.1444
3467.00,0.1448
3466.00,0.1453
3465.00,0.1458
3464.00,0.1463
3463.00,0.1468
3462.00,0.1474
3461.00,0.1479
3460.00,0.1483
3459.00,0.1487
3458.00,0.1491
3457.00,0.1495
3456.00,0.1499
3455.00,0.1504
3454.00,0.1508
3453.00,0.1513
3452.00,0.1518
3451.00,0.1522
3450.00,0.1526
3449.00,0.1530
3448.00,0.1535
3447.00,0.1540
3446.00,0.1545
3445.00,0.1549
3444.00,0.1553
3443.00,0.1557
3442.00,0.1562
3441.00,0.1567
3440.00,0.1572
3439.00,0.1576
3438.00,0.1581
3437.00,0.1585
3436.00,0.1589
3435.00,0.1592
3434.00,0.1596
3433.00,0.1599
3432.00,0.1602
3431.00,0.1606
3430.00,0.1609
3429.00,0.1612
3428.00,0.1615
3427.00,0.1618
3426.00,0.1621
3425.00,0.1623
3424.00,0.1626
3423.00,0.1629
3422.00,0.1632
3421.00,0.1635
3420.00,0.1638
3419.00,0.1641
3418.00,0.1644
3417.00,0.1646
3416.00,0.1649
3415.00,0.1651
3414.00,0.1654
3413.00,0.1657
3412.00,0.1660
3411.00,0.1662
3410.00,0.1663
3409.00,0.1665
3408.00,0.1666
3407.00,0.1668
3406.00,0.1669
3405.00,0.1672
3404.00,0.1675
3403.00,0.1677
3402.00,0.1680
3401.00,0.1681
3400.00,0.1681
3399.00,0.1680
3398.00,0.1680
3397.00,0.1681
3396.00,0.1682
3395.00,0.1683
3394.00,0.1684
3393.00,0.1685
3392.00,0.1686
3391.00,0.1685
3390.00,0.1684
3389.00,0.1682
3388.00,0.1681
3387.00,0.1681
3386.00,0.1681
3385.00,0.1681
3384.00,0.1681
3383.00,0.1680
3382.00,0.1680
3381.00,0.1679
3380.00,0.1678
3379.00,0.1677
3378.00,0.1676
3377.00,0.1675
3376.00,0.1673
3375.00,0.1672
3374.00,0.1671
3373.00,0.1670
3372.00,0.1669
3371.00,0.1669
3370.00,0.1667
3369.00,0.1666
3368.00,0.1663
3367.00,0.1660
3366.00,0.1657
3365.00,0.1654
3364.00,0.1652
3363.00,0.1649
3362.00,0.1647
3361.00,0.1645
3360.00,0.1642
3359.00,0.1638
3358.00,0.1635
3357.00,0.1632
3356.00,0.1629
3355.00,0.1627
3354.00,0.1624
3353.00,0.1621
3352.00,0.1619
3351.00,0.1615
3350.00,0.1612
3349.00,0.1608
3348.00,0.1604
3347.00,0.1600
3346.00,0.1597
3345.00,0.1594
3344.00,0.1591
3343.00,0.1588
3342.00,0.1584
3341.00,0.1580
3340.00,0.1576
3339.00,0.1572
3338.00,0.1569
3337.00,0.1565
3336.00,0.1562
3335.00,0.1558
3334.00,0.1554
3333.00,0.1550
3332.00,0.1546
3331.00,0.1542
3330.00,0.1538
3329.00,0.1534
3328.00,0.1531
3327.00,0.1527
3326.00,0.1523
3325.00,0.1520
3324.00,0.1516
3323.00,0.1512
3322.00,0.1507
3321.00,0.1503
3320.00,0.1499
3319.00,0.1495
3318.00,0.1492
3317.00,0.1488
3316.00,0.1485
3315.00,0.1482
3314.00,0.1478
3313.00,0.1474
3312.00,0.1470
3311.00,0.1467
3310.00,0.1463
3309.00,0.1460
3308.00,0.1456
3307.00,0.1452
3306.00,0.1448
3305.00,0.1444
3304.00,0.1440
3303.00,0.1435
3302.00,0.1431
3301.00,0.1427
3300.00,0.1422
3299.00,0.1418
3298.00,0.1414
3297.00,0.1410
3296.00,0.1407
3295.00,0.1404
3294.00,0.1401
3293.00,0.1397
3292.00,0.1394
3291.00,0.1390
3290.00,0.1386
3289.00,0.1382
3288.00,0.1378
3287.00,0.1375
3286.00,0.1371
3285.00,0.1367
3284.00,0.1363
3283.00,0.1359
3282.00,0.1355
3281.00,0.1351
3280.00,0.1348
3279.00,0.1344
3278.00,0.1340
3277.00,0.1336
3276.00,0.1332
3275.00,0.1329
3274.00,0.1325
3273.00,0.1321
3272.00,0.1317
3271.00,0.1313
3270.00,0.1310
3269.00,0.1306
3268.00,0.1302
3267.00,0.1298
3266.00,0.1294
3265.00,0.1290
3264.00,0.1286
3263.00,0.1282
3262.00,0.1279
3261.00,0.1275
3260.00,0.1271
3259.00,0.1267
3258.00,0.1263
3257.00,0.1258
3256.00,0.1254
3255.00,0.1249
3254.00,0.1245
3253.00,0.1241
3252.00,0.1237
3251.00,0.1233
3250.00,0.1228
3249.00,0.1224
3248.00,0.1219
3247.00,0.1214
3246.00,0.1209
3245.00,0.1204
3244.00,0.1199
3243.00,0.1195
3242.00,0.1190
3241.00,0.1185
3240.00,0.1180
3239.00,0.1175
3238.00,0.1170
3237.00,0.1165
3236.00,0.1161
3235.00,0.1156
3234.00,0.1151
3233.00,0.1145
3232.00,0.1139
3231.00,0.1133
3230.00,0.1127
3229.00,0.1121
3228.00,0.1116
3227.00,0.1111
3226.00,0.1105
3225.00,0.1099
3224.00,0.1093
3223.00,0.1087
3222.00,0.1082
3221.00,0.1076
3220.00,0.1070
3219.00,0.1065
3218.00,0.1059
3217.00,0.1053
3216.00,0.1047
3215.00,0.1041
3214.00,0.1035
3213.00,0.1029
3212.00,0.1023
3211.00,0.1017
3210.00,0.1011
3209.00,0.1005
3208.00,0.0999
3207.00,0.0993
3206.00,0.0987
3205.00,0.0980
3204.00,0.0974
3203.00,0.0968
3202.00,0.0961
3201.00,0.0955
3200.00,0.0948
3199.00,0.0942
3198.00,0.0936
3197.00,0.0929
3196.00,0.0923
3195.00,0.0917
3194.00,0.0911
3193.00,0.0905
3192.00,0.0899
3191.00,0.0892
3190.00,0.0886
3189.00,0.0879
3188.00,0.0872
3187.00,0.0866
3186.00,0.0859
3185.00,0.0853
3184.00,0.0847
3183.00,0.0841
3182.00,0.0835
3181.00,0.0828
3180.00,0.0822
3179.00,0.0816
3178.00,0.0809
3177.00,0.0803
3176.00,0.0798
3175.00,0.0792
3174.00,0.0786
3173.00,0.0780
3172.00,0.0774
3171.00,0.0768
3170.00,0.0761
3169.00,0.0755
3168.00,0.0749
3167.00,0.0744
3166.00,0.0738
3165.00,0.0732
3164.00,0.0726
3163.00,0.0720
3162.00,0.0714
3161.00,0.0709
3160.00,0.0704
3159.00,0.0699
3158.00,0.0693
3157.00,0.0687
3156.00,0.0682
3155.00,0.0676
3154.00,0.0670
3153.00,0.0665
3152.00,0.0660
3151.00,0.0655
3150.00,0.0650
3149.00,0.0644
3148.00,0.0639
3147.00,0.0634
3146.00,0.0629
3145.00,0.0624
3144.00,0.0619
3143.00,0.0614
3142.00,0.0609
3141.00,0.0604
3140.00,0.0599
3139.00,0.0594
3138.00,0.0589
3137.00,0.0584
3136.00,0.0579
3135.00,0.0574
3134.00,0.0570
3133.00,0.0565
3132.00,0.0561
3131.00,0.0556
3130.00,0.0552
3129.00,0.0547
3128.00,0.0543
3127.00,0.0538
3126.00,0.0534
3125.00,0.0530
3124.00,0.0527
3123.00,0.0523
3122.00,0.0519
3121.00,0.0515
3120.00,0.0511
3119.00,0.0507
3118.00,0.0502
3117.00,0.0498
3116.00,0.0494
3115.00,0.0489
3114.00,0.0485
3113.00,0.0481
3112.00,0.0478
3111.00,0.0475
3110.00,0.0472
3109.00,0.0468
3108.00,0.0464
3107.00,0.0461
3106.00,0.0457
3105.00,0.0453
3104.00,0.0450
3103.00,0.0446
3102.00,0.0443
3101.00,0.0440
3100.00,0.0436
3099.00,0.0433
3098.00,0.0430
3097.00,0.0426
3096.00,0.0423
3095.00,0.0420
3094.00,0.0416
3093.00,0.0413
3092.00,0.0410
3091.00,0.0406
3090.00,0.0403
3089.00,0.0400
3088.00,0.0398
3087.00,0.0395
3086.00,0.0393
3085.00,0.0390
3084.00,0.0387
3083.00,0.0384
3082.00,0.0381
3081.00,0.0378
3080.00,0.0375
3079.00,0.0372
3078.00,0.0369
3077.00,0.0366
3076.00,0.0363
3075.00,0.0360
3074.00,0.0358
3073.00,0.0355
3072.00,0.0353
3071.00,0.0351
3070.00,0.0349
3069.00,0.0346
3068.00,0.0344
3067.00,0.0342
3066.00,0.0339
3065.00,0.0337
3064.00,0.0334
3063.00,0.0331
3062.00,0.0329
3061.00,0.0326
3060.00,0.0324
3059.00,0.0321
3058.00,0.0319
3057.00,0.0316
3056.00,0.0314
3055.00,0.0311
3054.00,0.0309
3053.00,0.0307
3052.00,0.0305
3051.00,0.0303
3050.00,0.0301
3049.00,0.0299
3048.00,0.0297
3047.00,0.0295
3046.00,0.0293
3045.00,0.0291
3044.00,0.0289
3043.00,0.0287
3042.00,0.0285
3041.00,0.0283
3040.00,0.0281
3039.00,0.0279
3038.00,0.0278
3037.00,0.0276
3036.00,0.0274
3035.00,0.0272
3034.00,0.0270
3033.00,0.0269
3032.00,0.0267
3031.00,0.0266
3030.00,0.0264
3029.00,0.0262
3028.00,0.0261
3027.00,0.0260
3026.00,0.0258
3025.00,0.0257
3024.00,0.0255
3023.00,0.0253
3022.00,0.0252
3021.00,0.0250
3020.00,0.0249
3019.00,0.0248
3018.00,0.0247
3017.00,0.0246
3016.00,0.0245
3015.00,0.0243
3014.00,0.0242
3013.00,0.0241
3012.00,0.0240
3011.00,0.0239
3010.00,0.0239
3009.00,0.0238
3008.00,0.0238
3007.00,0.0237
3006.00,0.0236
3005.00,0.0235
3004.00,0.0234
3003.00,0.0234
3002.00,0.0233
3001.00,0.0232
3000.00,0.0231
2999.00,0.0231
2998.00,0.0230
2997.00,0.0230
2996.00,0.0229
2995.00,0.0229
2994.00,0.0229
2993.00,0.0229
2992.00,0.0230
2991.00,0.0230
2990.00,0.0230
2989.00,0.0230
2988.00,0.0230
2987.00,0.0230
2986.00,0.0230
2985.00,0.0231
2984.00,0.0231
2983.00,0.0232
2982.00,0.0232
2981.00,0.0233
2980.00,0.0234
2979.00,0.0234
2978.00,0.0235
2977.00,0.0236
2976.00,0.0237
2975.00,0.0237
2974.00,0.0238
2973.00,0.0238
2972.00,0.0239
2971.00,0.0239
2970.00,0.0240
2969.00,0.0240
2968.00,0.0240
2967.00,0.0240
2966.00,0.0241
2965.00,0.0241
2964.00,0.0241
2963.00,0.0241
2962.00,0.0241
2961.00,0.0241
2960.00,0.0242
2959.00,0.0242
2958.00,0.0241
2957.00,0.0241
2956.00,0.0240
2955.00,0.0239
2954.00,0.0238
2953.00,0.0237
2952.00,0.0237
2951.00,0.0236
2950.00,0.0236
2949.00,0.0235
2948.00,0.0235
2947.00,0.0235
2946.00,0.0235
2945.00,0.0235
2944.00,0.0235
2943.00,0.0235
2942.00,0.0235
2941.00,0.0234
2940.00,0.0234
2939.00,0.0235
2938.00,0.0235
2937.00,0.0235
2936.00,0.0235
2935.00,0.0236
2934.00,0.0236
2933.00,0.0237
2932.00,0.0237
2931.00,0.0238
2930.00,0.0238
2929.00,0.0238
2928.00,0.0238
2927.00,0.0239
2926.00,0.0239
2925.00,0.0240
2924.00,0.0240
2923.00,0.0241
2922.00,0.0241
2921.00,0.0241
2920.00,0.0241
2919.00,0.0241
2918.00,0.0240
2917.00,0.0239
2916.00,0.0238
2915.00,0.0236
2914.00,0.0234
2913.00,0.0231
2912.00,0.0229
2911.00,0.0227
2910.00,0.0225
2909.00,0.0222
2908.00,0.0220
2907.00,0.0219
2906.00,0.0217
2905.00,0.0216
2904.00,0.0215
2903.00,0.0213
2902.00,0.0211
2901.00,0.0209
2900.00,0.0207
2899.00,0.0206
2898.00,0.0204
2897.00,0.0203
2896.00,0.0201
2895.00,0.0199
2894.00,0.0197
2893.00,0.0195
2892.00,0.0194
2891.00,0.0193
2890.00,0.0193
2889.00,0.0192
2888.00,0.0191
2887.00,0.0190
2886.00,0.0189
2885.00,0.0188
2884.00,0.0186
2883.00,0.0185
2882.00,0.0183
2881.00,0.0182
2880.00,0.0181
2879.00,0.0180
2878.00,0.0180
2877.00,0.0179
2876.00,0.0178
2875.00,0.0177
2874.00,0.0176
2873.00,0.0174
2872.00,0.0173
2871.00,0.0172
2870.00,0.0171
2869.00,0.0170
2868.00,0.0168
2867.00,0.0166
2866.00,0.0165
2865.00,0.0164
2864.00,0.0162
2863.00,0.0162
2862.00,0.0161
2861.00,0.0160
2860.00,0.0160
2859.00,0.0160
2858.00,0.0159
2857.00,0.0159
2856.00,0.0159
2855.00,0.0159
2854.00,0.0159
2853.00,0.0160
2852.00,0.0159
2851.00,0.0158
2850.00,0.0157
2849.00,0.0154
2848.00,0.0152
2847.00,0.0149
2846.00,0.0146
2845.00,0.0144
2844.00,0.0141
2843.00,0.0139
2842.00,0.0138
2841.00,0.0136
2840.00,0.0135
2839.00,0.0134
2838.00,0.0132
2837.00,0.0131
2836.00,0.0130
2835.00,0.0129
2834.00,0.0129
2833.00,0.0128
2832.00,0.0127
2831.00,0.0126
2830.00,0.0125
2829.00,0.0124
2828.00,0.0124
2827.00,0.0123
2826.00,0.0122
2825.00,0.0122
2824.00,0.0121
2823.00,0.0121
2822.00,0.0120
2821.00,0.0120
2820.00,0.0119
2819.00,0.0119
2818.00,0.0118
2817.00,0.0117
2816.00,0.0116
2815.00,0.0116
2814.00,0.0115
2813.00,0.0115
2812.00,0.0114
2811.00,0.0114
2810.00,0.0114
2809.00,0.0113
2808.00,0.0113
2807.00,0.0113
2806.00,0.0112
2805.00,0.0112
2804.00,0.0111
2803.00,0.0110
2802.00,0.0109
2801.00,0.0109
2800.00,0.0109
2799.00,0.0109
2798.00,0.0109
2797.00,0.0109
2796.00,0.0109
2795.00,0.0108
2794.00,0.0107
2793.00,0.0107
2792.00,0.0107
2791.00,0.0107
2790.00,0.0107
2789.00,0.0106
2788.00,0.0105
2787.00,0.0105
2786.00,0.0104
2785.00,0.0103
2784.00,0.0103
2783.00,0.0103
2782.00,0.0103
2781.00,0.0102
2780.00,0.0102
2779.00,0.0102
2778.00,0.0102
2777.00,0.0102
2776.00,0.0101
2775.00,0.0101
2774.00,0.0101
2773.00,0.0100
2772.00,0.0099
2771.00,0.0099
2770.00,0.0098
2769.00,0.0098
2768.00,0.0098
2767.00,0.0098
2766.00,0.0097
2765.00,0.0097
2764.00,0.0096
2763.00,0.0096
2762.00,0.0096
2761.00,0.0095
2760.00,0.0095
2759.00,0.0095
2758.00,0.0095
2757.00,0.0095
2756.00,0.0094
2755.00,0.0094
2754.00,0.0094
2753.00,0.0093
2752.00,0.0093
2751.00,0.0093
2750.00,0.0093
2749.00,0.0093
2748.00,0.0093
2747.00,0.0092
2746.00,0.0092
2745.00,0.0092
2744.00,0.0092
2743.00,0.0091
2742.00,0.0091
2741.00,0.0091
2740.00,0.0091
2739.00,0.0091
2738.00,0.0091
2737.00,0.0091
2736.00,0.0091
2735.00,0.0091
2734.00,0.0091
2733.00,0.0091
2732.00,0.0090
2731.00,0.0090
2730.00,0.0090
2729.00,0.0090
2728.00,0.0090
2727.00,0.0090
2726.00,0.0089
2725.00,0.0089
2724.00,0.0089
2723.00,0.0089
2722.00,0.0089
2721.00,0.0088
2720.00,0.0088
2719.00,0.0088
2718.00,0.0087
2717.00,0.0087
2716.00,0.0087
2715.00,0.0087
2714.00,0.0086
2713.00,0.0086
2712.00,0.0086
2711.00,0.0086
2710.00,0.0086
2709.00,0.0086
2708.00,0.0086
2707.00,0.0086
2706.00,0.0085
2705.00,0.0085
2704.00,0.0085
2703.00,0.0085
2702.00,0.0085
2701.00,0.0085
2700.00,0.0085
2699.00,0.0085
2698.00,0.0085
2697.00,0.0085
2696.00,0.0085
2695.00,0.0084
2694.00,0.0084
2693.00,0.0083
2692.00,0.0083
2691.00,0.0083
2690.00,0.0083
2689.00,0.0083
2688.00,0.0083
2687.00,0.0083
2686.00,0.0083
2685.00,0.0083
2684.00,0.0082
2683.00,0.0082
2682.00,0.0082
2681.00,0.0082
2680.00,0.0082
2679.00,0.0082
2678.00,0.0081
2677.00,0.0081
2676.00,0.0081
2675.00,0.0081
2674.00,0.0081
2673.00,0.0081
2672.00,0.0080
2671.00,0.0080
2670.00,0.0080
2669.00,0.0080
2668.00,0.0080
2667.00,0.0080
2666.00,0.0080
2665.00,0.0081
2664.00,0.0081
2663.00,0.0081
2662.00,0.0082
2661.00,0.0083
2660.00,0.0083
2659.00,0.0084
2658.00,0.0084
2657.00,0.0084
2656.00,0.0084
2655.00,0.0084
2654.00,0.0084
2653.00,0.0084
2652.00,0.0084
2651.00,0.0083
2650.00,0.0083
2649.00,0.0082
2648.00,0.0082
2647.00,0.0082
2646.00,0.0082
2645.00,0.0082
2644.00,0.0081
2643.00,0.0081
2642.00,0.0080
2641.00,0.0080
2640.00,0.0080
2639.00,0.0079
2638.00,0.0079
2637.00,0.0079
2636.00,0.0079
2635.00,0.0079
2634.00,0.0079
2633.00,0.0079
2632.00,0.0078
2631.00,0.0078
2630.00,0.0077
2629.00,0.0077
2628.00,0.0077
2627.00,0.0077
2626.00,0.0077
2625.00,0.0076
2624.00,0.0075
2623.00,0.0075
2622.00,0.0075
2621.00,0.0075
2620.00,0.0075
2619.00,0.0075
2618.00,0.0075
2617.00,0.0074
2616.00,0.0074
2615.00,0.0073
2614.00,0.0073
2613.00,0.0073
2612.00,0.0073
2611.00,0.0073
2610.00,0.0073
2609.00,0.0073
2608.00,0.0072
2607.00,0.0071
2606.00,0.0070
2605.00,0.0070
2604.00,0.0069
2603.00,0.0069
2602.00,0.0069
2601.00,0.0069
2600.00,0.0069
2599.00,0.0069
2598.00,0.0068
2597.00,0.0068
2596.00,0.0068
2595.00,0.0068
2594.00,0.0068
2593.00,0.0068
2592.00,0.0067
2591.00,0.0067
2590.00,0.0067
2589.00,0.0067
2588.00,0.0067
2587.00,0.0067
2586.00,0.0067
2585.00,0.0067
2584.00,0.0067
2583.00,0.0066
2582.00,0.0066
2581.00,0.0066
2580.00,0.0066
2579.00,0.0066
2578.00,0.0066
2577.00,0.0066
2576.00,0.0065
2575.00,0.0065
2574.00,0.0064
2573.00,0.0064
2572.00,0.0064
2571.00,0.0063
2570.00,0.0063
2569.00,0.0063
2568.00,0.0064
2567.00,0.0064
2566.00,0.0063
2565.00,0.0063
2564.00,0.0062
2563.00,0.0062
2562.00,0.0063
2561.00,0.0063
2560.00,0.0062
2559.00,0.0062
2558.00,0.0061
2557.00,0.0061
2556.00,0.0061
2555.00,0.0061
2554.00,0.0061
2553.00,0.0061
2552.00,0.0061
2551.00,0.0061
2550.00,0.0061
2549.00,0.0061
2548.00,0.0062
2547.00,0.0062
2546.00,0.0062
2545.00,0.0062
2544.00,0.0062
2543.00,0.0061
2542.00,0.0061
2541.00,0.0060
2540.00,0.0060
2539.00,0.0060
2538.00,0.0060
2537.00,0.0060
2536.00,0.0060
2535.00,0.0060
2534.00,0.0060
2533.00,0.0059
2532.00,0.0059
2531.00,0.0059
2530.00,0.0059
2529.00,0.0059
2528.00,0.0058
2527.00,0.0058
2526.00,0.0057
2525.00,0.0057
2524.00,0.0057
2523.00,0.0057
2522.00,0.0058
2521.00,0.0058
2520.00,0.0059
2519.00,0.0059
2518.00,0.0059
2517.00,0.0059
2516.00,0.0059
2515.00,0.0059
2514.00,0.0059
2513.00,0.0059
2512.00,0.0059
2511.00,0.0058
2510.00,0.0058
2509.00,0.0059
2508.00,0.0059
2507.00,0.0059
2506.00,0.0059
2505.00,0.0059
2504.00,0.0058
2503.00,0.0058
2502.00,0.0057
2501.00,0.0058
2500.00,0.0058
2499.00,0.0058
2498.00,0.0058
2497.00,0.0058
2496.00,0.0058
2495.00,0.0058
2494.00,0.0059
2493.00,0.0059
2492.00,0.0059
2491.00,0.0059
2490.00,0.0059
2489.00,0.0058
2488.00,0.0058
2487.00,0.0057
2486.00,0.0057
2485.00,0.0057
2484.00,0.0056
2483.00,0.0056
2482.00,0.0056
2481.00,0.0056
2480.00,0.0056
2479.00,0.0056
2478.00,0.0056
2477.00,0.0056
2476.00,0.0057
2475.00,0.0057
2474.00,0.0057
2473.00,0.0058
2472.00,0.0058
2471.00,0.0058
2470.00,0.0057
2469.00,0.0056
2468.00,0.0056
2467.00,0.0056
2466.00,0.0056
2465.00,0.0056
2464.00,0.0056
2463.00,0.0056
2462.00,0.0057
2461.00,0.0057
2460.00,0.0058
2459.00,0.0058
2458.00,0.0059
2457.00,0.0059
2456.00,0.0059
2455.00,0.0059
2454.00,0.0058
2453.00,0.0058
2452.00,0.0059
2451.00,0.0059
2450.00,0.0059
2449.00,0.0058
2448.00,0.0058
2447.00,0.0058
2446.00,0.0057
2445.00,0.0057
2444.00,0.0057
2443.00,0.0056
2442.00,0.0056
2441.00,0.0057
2440.00,0.0057
2439.00,0.0058
2438.00,0.0058
2437.00,0.0058
2436.00,0.0057
2435.00,0.0057
2434.00,0.0056
2433.00,0.0056
2432.00,0.0056
2431.00,0.0055
2430.00,0.0056
2429.00,0.0056
2428.00,0.0057
2427.00,0.0057
2426.00,0.0058
2425.00,0.0057
2424.00,0.0057
2423.00,0.0057
2422.00,0.0057
2421.00,0.0057
2420.00,0.0057
2419.00,0.0057
2418.00,0.0056
2417.00,0.0056
2416.00,0.0056
2415.00,0.0056
2414.00,0.0056
2413.00,0.0056
2412.00,0.0056
2411.00,0.0057
2410.00,0.0057
2409.00,0.0057
2408.00,0.0057
2407.00,0.0056
2406.00,0.0056
2405.00,0.0055
2404.00,0.0055
2403.00,0.0054
2402.00,0.0054
2401.00,0.0054
2400.00,0.0055
2399.00,0.0055
2398.00,0.0055
2397.00,0.0056
2396.00,0.0056
2395.00,0.0056
2394.00,0.0057
2393.00,0.0057
2392.00,0.0057
2391.00,0.0057
2390.00,0.0057
2389.00,0.0057
2388.00,0.0056
2387.00,0.0056
2386.00,0.0056
2385.00,0.0056
2384.00,0.0056
2383.00,0.0056
2382.00,0.0056
2381.00,0.0056
2380.00,0.0056
2379.00,0.0056
2378.00,0.0056
2377.00,0.0056
2376.00,0.0057
2375.00,0.0057
2374.00,0.0057
2373.00,0.0057
2372.00,0.0057
2371.00,0.0058
2370.00,0.0058
2369.00,0.0059
2368.00,0.0059
2367.00,0.0059
2366.00,0.0059
2365.00,0.0059
2364.00,0.0059
2363.00,0.0060
2362.00,0.0061
2361.00,0.0062
2360.00,0.0062
2359.00,0.0062
2358.00,0.0062
2357.00,0.0063
2356.00,0.0064
2355.00,0.0064
2354.00,0.0064
2353.00,0.0064
2352.00,0.0063
2351.00,0.0063
2350.00,0.0064
2349.00,0.0066
2348.00,0.0068
2347.00,0.0069
2346.00,0.0069
2345.00,0.0068
2344.00,0.0068
2343.00,0.0069
2342.00,0.0070
2341.00,0.0071
2340.00,0.0072
2339.00,0.0073
2338.00,0.0073
2337.00,0.0074
2336.00,0.0074
2335.00,0.0073
2334.00,0.0073
2333.00,0.0072
2332.00,0.0072
2331.00,0.0072
2330.00,0.0072
2329.00,0.0074
2328.00,0.0077
2327.00,0.0082
2326.00,0.0088
2325.00,0.0094
2324.00,0.0097
2323.00,0.0098
2322.00,0.0096
2321.00,0.0093
2320.00,0.0090
2319.00,0.0088
2318.00,0.0087
2317.00,0.0087
2316.00,0.0086
2315.00,0.0086
2314.00,0.0086
2313.00,0.0086
2312.00,0.0086
2311.00,0.0086
2310.00,0.0086
2309.00,0.0086
2308.00,0.0085
2307.00,0.0085
2306.00,0.0085
2305.00,0.0085
2304.00,0.0085
2303.00,0.0086
2302.00,0.0086
2301.00,0.0086
2300.00,0.0087
2299.00,0.0087
2298.00,0.0087
2297.00,0.0087
2296.00,0.0087
2295.00,0.0087
2294.00,0.0088
2293.00,0.0090
2292.00,0.0091
2291.00,0.0093
2290.00,0.0094
2289.00,0.0095
2288.00,0.0096
2287.00,0.0096
2286.00,0.0096
2285.00,0.0097
2284.00,0.0096
2283.00,0.0095
2282.00,0.0094
2281.00,0.0093
2280.00,0.0093
2279.00,0.0093
2278.00,0.0093
2277.00,0.0092
2276.00,0.0092
2275.00,0.0090
2274.00,0.0088
2273.00,0.0086
2272.00,0.0085
2271.00,0.0085
2270.00,0.0086
2269.00,0.0086
2268.00,0.0087
2267.00,0.0086
2266.00,0.0085
2265.00,0.0085
2264.00,0.0085
2263.00,0.0085
2262.00,0.0086
2261.00,0.0086
2260.00,0.0087
2259.00,0.0087
2258.00,0.0086
2257.00,0.0085
2256.00,0.0084
2255.00,0.0084
2254.00,0.0083
2253.00,0.0082
2252.00,0.0081
2251.00,0.0080
2250.00,0.0079
2249.00,0.0080
2248.00,0.0082
2247.00,0.0084
2246.00,0.0085
2245.00,0.0086
2244.00,0.0087
2243.00,0.0087
2242.00,0.0086
2241.00,0.0086
2240.00,0.0086
2239.00,0.0086
2238.00,0.0086
2237.00,0.0086
2236.00,0.0086
2235.00,0.0086
2234.00,0.0085
2233.00,0.0084
2232.00,0.0083
2231.00,0.0081
2230.00,0.0080
2229.00,0.0079
2228.00,0.0079
2227.00,0.0080
2226.00,0.0081
2225.00,0.0082
2224.00,0.0083
2223.00,0.0084
2222.00,0.0085
2221.00,0.0085
2220.00,0.0085
2219.00,0.0084
2218.00,0.0083
2217.00,0.0084
2216.00,0.0086
2215.00,0.0086
2214.00,0.0085
2213.00,0.0083
2212.00,0.0081
2211.00,0.0081
2210.00,0.0081
2209.00,0.0082
2208.00,0.0082
2207.00,0.0083
2206.00,0.0084
2205.00,0.0086
2204.00,0.0087
2203.00,0.0087
2202.00,0.0087
2201.00,0.0086
2200.00,0.0087
2199.00,0.0088
2198.00,0.0088
2197.00,0.0088
2196.00,0.0088
2195.00,0.0087
2194.00,0.0086
2193.00,0.0085
2192.00,0.0086
2191.00,0.0089
2190.00,0.0091
2189.00,0.0091
2188.00,0.0089
2187.00,0.0087
2186.00,0.0086
2185.00,0.0085
2184.00,0.0085
2183.00,0.0084
2182.00,0.0084
2181.00,0.0084
2180.00,0.0085
2179.00,0.0086
2178.00,0.0087
2177.00,0.0086
2176.00,0.0084
2175.00,0.0080
2174.00,0.0077
2173.00,0.0077
2172.00,0.0079
2171.00,0.0082
2170.00,0.0084
2169.00,0.0086
2168.00,0.0089
2167.00,0.0092
2166.00,0.0095
2165.00,0.0097
2164.00,0.0099
2163.00,0.0101
2162.00,0.0101
2161.00,0.0097
2160.00,0.0084
2159.00,0.0064
2158.00,0.0044
2157.00,0.0033
2156.00,0.0031
2155.00,0.0034
2154.00,0.0038
2153.00,0.0042
2152.00,0.0046
2151.00,0.0050
2150.00,0.0053
2149.00,0.0055
2148.00,0.0057
2147.00,0.0057
2146.00,0.0057
2145.00,0.0058
2144.00,0.0059
2143.00,0.0061
2142.00,0.0062
2141.00,0.0064
2140.00,0.0065
2139.00,0.0066
2138.00,0.0066
2137.00,0.0065
2136.00,0.0063
2135.00,0.0062
2134.00,0.0060
2133.00,0.0061
2132.00,0.0063
2131.00,0.0067
2130.00,0.0070
2129.00,0.0074
2128.00,0.0077
2127.00,0.0079
2126.00,0.0081
2125.00,0.0083
2124.00,0.0085
2123.00,0.0087
2122.00,0.0088
2121.00,0.0090
2120.00,0.0091
2119.00,0.0093
2118.00,0.0095
2117.00,0.0098
2116.00,0.0100
2115.00,0.0101
2114.00,0.0102
2113.00,0.0103
2112.00,0.0104
2111.00,0.0105
2110.00,0.0105
2109.00,0.0105
2108.00,0.0104
2107.00,0.0103
2106.00,0.0102
2105.00,0.0101
2104.00,0.0100
2103.00,0.0100
2102.00,0.0100
2101.00,0.0100
2100.00,0.0100
2099.00,0.0099
2098.00,0.0098
2097.00,0.0097
2096.00,0.0097
2095.00,0.0097
2094.00,0.0096
2093.00,0.0095
2092.00,0.0096
2091.00,0.0097
2090.00,0.0098
2089.00,0.0099
2088.00,0.0100
2087.00,0.0100
2086.00,0.0099
2085.00,0.0098
2084.00,0.0098
2083.00,0.0099
2082.00,0.0100
2081.00,0.0101
2080.00,0.0103
2079.00,0.0103
2078.00,0.0103
2077.00,0.0103
2076.00,0.0102
2075.00,0.0101
2074.00,0.0099
2073.00,0.0098
2072.00,0.0098
2071.00,0.0097
2070.00,0.0097
2069.00,0.0097
2068.00,0.0097
2067.00,0.0096
2066.00,0.0094
2065.00,0.0091
2064.00,0.0091
2063.00,0.0092
2062.00,0.0093
2061.00,0.0093
2060.00,0.0092
2059.00,0.0090
2058.00,0.0089
2057.00,0.0088
2056.00,0.0089
2055.00,0.0090
2054.00,0.0092
2053.00,0.0096
2052.00,0.0102
2051.00,0.0104
2050.00,0.0103
2049.00,0.0098
2048.00,0.0095
2047.00,0.0094
2046.00,0.0094
2045.00,0.0094
2044.00,0.0093
2043.00,0.0092
2042.00,0.0090
2041.00,0.0087
2040.00,0.0085
2039.00,0.0082
2038.00,0.0080
2037.00,0.0080
2036.00,0.0081
2035.00,0.0081
2034.00,0.0078
2033.00,0.0074
2032.00,0.0070
2031.00,0.0066
2030.00,0.0063
2029.00,0.0061
2028.00,0.0062
2027.00,0.0062
2026.00,0.0062
2025.00,0.0062
2024.00,0.0064
2023.00,0.0066
2022.00,0.0069
2021.00,0.0070
2020.00,0.0069
2019.00,0.0065
2018.00,0.0060
2017.00,0.0058
2016.00,0.0059
2015.00,0.0061
2014.00,0.0062
2013.00,0.0062
2012.00,0.0063
2011.00,0.0062
2010.00,0.0062
2009.00,0.0061
2008.00,0.0058
2007.00,0.0053
2006.00,0.0050
2005.00,0.0051
2004.00,0.0056
2003.00,0.0060
2002.00,0.0062
2001.00,0.0062
2000.00,0.0064
1999.00,0.0067
1998.00,0.0071
1997.00,0.0073
1996.00,0.0075
1995.00,0.0075
1994.00,0.0075
1993.00,0.0075
1992.00,0.0076
1991.00,0.0078
1990.00,0.0078
1989.00,0.0077
1988.00,0.0076
1987.00,0.0074
1986.00,0.0073
1985.00,0.0073
1984.00,0.0074
1983.00,0.0075
1982.00,0.0077
1981.00,0.0080
1980.00,0.0082
1979.00,0.0081
1978.00,0.0074
1977.00,0.0065
1976.00,0.0058
1975.00,0.0052
1974.00,0.0048
1973.00,0.0046
1972.00,0.0046
1971.00,0.0048
1970.00,0.0050
1969.00,0.0052
1968.00,0.0054
1967.00,0.0054
1966.00,0.0053
1965.00,0.0052
1964.00,0.0052
1963.00,0.0052
1962.00,0.0050
1961.00,0.0047
1960.00,0.0045
1959.00,0.0043
1958.00,0.0043
1957.00,0.0044
1956.00,0.0048
1955.00,0.0052
1954.00,0.0055
1953.00,0.0057
1952.00,0.0057
1951.00,0.0057
1950.00,0.0057
1949.00,0.0058
1948.00,0.0060
1947.00,0.0060
1946.00,0.0059
1945.00,0.0058
1944.00,0.0057
1943.00,0.0057
1942.00,0.0057
1941.00,0.0057
1940.00,0.0057
1939.00,0.0057
1938.00,0.0056
1937.00,0.0056
1936.00,0.0057
1935.00,0.0058
1934.00,0.0059
1933.00,0.0060
1932.00,0.0060
1931.00,0.0061
1930.00,0.0060
1929.00,0.0060
1928.00,0.0061
1927.00,0.0062
1926.00,0.0063
1925.00,0.0065
1924.00,0.0066
1923.00,0.0066
1922.00,0.0066
1921.00,0.0066
1920.00,0.0066
1919.00,0.0067
1918.00,0.0066
1917.00,0.0065
1916.00,0.0065
1915.00,0.0065
1914.00,0.0064
1913.00,0.0064
1912.00,0.0066
1911.00,0.0067
1910.00,0.0069
1909.00,0.0069
1908.00,0.0069
1907.00,0.0068
1906.00,0.0067
1905.00,0.0066
1904.00,0.0065
1903.00,0.0065
1902.00,0.0065
1901.00,0.0065
1900.00,0.0065
1899.00,0.0065
1898.00,0.0065
1897.00,0.0065
1896.00,0.0065
1895.00,0.0066
1894.00,0.0066
1893.00,0.0067
1892.00,0.0068
1891.00,0.0069
1890.00,0.0069
1889.00,0.0068
1888.00,0.0067
1887.00,0.0066
1886.00,0.0066
1885.00,0.0065
1884.00,0.0065
1883.00,0.0065
1882.00,0.0066
1881.00,0.0067
1880.00,0.0067
1879.00,0.0066
1878.00,0.0065
1877.00,0.0064
1876.00,0.0063
1875.00,0.0063
1874.00,0.0064
1873.00,0.0065
1872.00,0.0067
1871.00,0.0068
1870.00,0.0067
1869.00,0.0066
1868.00,0.0066
1867.00,0.0066
1866.00,0.0066
1865.00,0.0066
1864.00,0.0066
1863.00,0.0066
1862.00,0.0066
1861.00,0.0066
1860.00,0.0067
1859.00,0.0067
1858.00,0.0067
1857.00,0.0067
1856.00,0.0067
1855.00,0.0067
1854.00,0.0067
1853.00,0.0067
1852.00,0.0067
1851.00,0.0068
1850.00,0.0068
1849.00,0.0069
1848.00,0.0071
1847.00,0.0072
1846.00,0.0073
1845.00,0.0072
1844.00,0.0070
1843.00,0.0069
1842.00,0.0069
1841.00,0.0069
1840.00,0.0070
1839.00,0.0070
1838.00,0.0071
1837.00,0.0071
1836.00,0.0071
1835.00,0.0072
1834.00,0.0073
1833.00,0.0074
1832.00,0.0076
1831.00,0.0076
1830.00,0.0075
1829.00,0.0075
1828.00,0.0076
1827.00,0.0077
1826.00,0.0077
1825.00,0.0076
1824.00,0.0076
1823.00,0.0076
1822.00,0.0076
1821.00,0.0077
1820.00,0.0076
1819.00,0.0076
1818.00,0.0075
1817.00,0.0074
1816.00,0.0075
1815.00,0.0076
1814.00,0.0077
1813.00,0.0079
1812.00,0.0080
1811.00,0.0081
1810.00,0.0081
1809.00,0.0081
1808.00,0.0082
1807.00,0.0082
1806.00,0.0083
1805.00,0.0084
1804.00,0.0085
1803.00,0.0086
1802.00,0.0087
1801.00,0.0087
1800.00,0.0088
1799.00,0.0088
1798.00,0.0089
1797.00,0.0090
1796.00,0.0092
1795.00,0.0094
1794.00,0.0095
1793.00,0.0095
1792.00,0.0093
1791.00,0.0092
1790.00,0.0092
1789.00,0.0093
1788.00,0.0094
1787.00,0.0095
1786.00,0.0095
1785.00,0.0095
1784.00,0.0096
1783.00,0.0097
1782.00,0.0097
1781.00,0.0098
1780.00,0.0098
1779.00,0.0099
1778.00,0.0099
1777.00,0.0100
1776.00,0.0102
1775.00,0.0104
1774.00,0.0106
1773.00,0.0107
1772.00,0.0107
1771.00,0.0106
1770.00,0.0106
1769.00,0.0106
1768.00,0.0107
1767.00,0.0108
1766.00,0.0110
1765.00,0.0112
1764.00,0.0114
1763.00,0.0115
1762.00,0.0115
1761.00,0.0115
1760.00,0.0116
1759.00,0.0117
1758.00,0.0118
1757.00,0.0119
1756.00,0.0120
1755.00,0.0122
1754.00,0.0125
1753.00,0.0127
1752.00,0.0129
1751.00,0.0130
1750.00,0.0131
1749.00,0.0133
1748.00,0.0134
1747.00,0.0136
1746.00,0.0137
1745.00,0.0139
1744.00,0.0141
1743.00,0.0144
1742.00,0.0146
1741.00,0.0147
1740.00,0.0148
1739.00,0.0149
1738.00,0.0152
1737.00,0.0155
1736.00,0.0158
1735.00,0.0159
1734.00,0.0159
1733.00,0.0160
1732.00,0.0163
1731.00,0.0166
1730.00,0.0168
1729.00,0.0170
1728.00,0.0173
1727.00,0.0176
1726.00,0.0178
1725.00,0.0181
1724.00,0.0184
1723.00,0.0187
1722.00,0.0192
1721.00,0.0197
1720.00,0.0201
1719.00,0.0205
1718.00,0.0209
1717.00,0.0213
1716.00,0.0218
1715.00,0.0223
1714.00,0.0227
1713.00,0.0231
1712.00,0.0235
1711.00,0.0240
1710.00,0.0245
1709.00,0.0251
1708.00,0.0257
1707.00,0.0263
1706.00,0.0270
1705.00,0.0277
1704.00,0.0285
1703.00,0.0293
1702.00,0.0299
1701.00,0.0306
1700.00,0.0315
1699.00,0.0325
1698.00,0.0334
1697.00,0.0342
1696.00,0.0352
1695.00,0.0362
1694.00,0.0372
1693.00,0.0382
1692.00,0.0391
1691.00,0.0401
1690.00,0.0411
1689.00,0.0423
1688.00,0.0435
1687.00,0.0445
1686.00,0.0455
1685.00,0.0470
1684.00,0.0490
1683.00,0.0510
1682.00,0.0524
1681.00,0.0535
1680.00,0.0547
1679.00,0.0559
1678.00,0.0571
1677.00,0.0584
1676.00,0.0599
1675.00,0.0617
1674.00,0.0635
1673.00,0.0650
1672.00,0.0663
1671.00,0.0677
1670.00,0.0694
1669.00,0.0714
1668.00,0.0733
1667.00,0.0748
1666.00,0.0760
1665.00,0.0772
1664.00,0.0786
1663.00,0.0803
1662.00,0.0822
1661.00,0.0839
1660.00,0.0854
1659.00,0.0867
1658.00,0.0880
1657.00,0.0891
1656.00,0.0900
1655.00,0.0908
1654.00,0.0922
1653.00,0.0952
1652.00,0.0981
1651.00,0.0996
1650.00,0.1001
1649.00,0.1004
1648.00,0.1009
1647.00,0.1023
1646.00,0.1039
1645.00,0.1051
1644.00,0.1058
1643.00,0.1061
1642.00,0.1064
1641.00,0.1066
1640.00,0.1069
1639.00,0.1072
1638.00,0.1072
1637.00,0.1072
1636.00,0.1075
1635.00,0.1081
1634.00,0.1083
1633.00,0.1079
1632.00,0.1072
1631.00,0.1063
1630.00,0.1053
1629.00,0.1044
1628.00,0.1035
1627.00,0.1026
1626.00,0.1016
1625.00,0.1004
1624.00,0.0989
1623.00,0.0975
1622.00,0.0961
1621.00,0.0947
1620.00,0.0932
1619.00,0.0917
1618.00,0.0899
1617.00,0.0880
1616.00,0.0863
1615.00,0.0847
1614.00,0.0832
1613.00,0.0815
1612.00,0.0798
1611.00,0.0780
1610.00,0.0764
1609.00,0.0747
1608.00,0.0731
1607.00,0.0715
1606.00,0.0700
1605.00,0.0685
1604.00,0.0671
1603.00,0.0658
1602.00,0.0645
1601.00,0.0632
1600.00,0.0619
1599.00,0.0607
1598.00,0.0595
1597.00,0.0585
1596.00,0.0574
1595.00,0.0564
1594.00,0.0554
1593.00,0.0545
1592.00,0.0536
1591.00,0.0527
1590.00,0.0519
1589.00,0.0512
1588.00,0.0505
1587.00,0.0498
1586.00,0.0492
1585.00,0.0486
1584.00,0.0481
1583.00,0.0476
1582.00,0.0472
1581.00,0.0468
1580.00,0.0465
1579.00,0.0462
1578.00,0.0459
1577.00,0.0454
1576.00,0.0449
1575.00,0.0445
1574.00,0.0443
1573.00,0.0441
1572.00,0.0438
1571.00,0.0435
1570.00,0.0431
1569.00,0.0428
1568.00,0.0425
1567.00,0.0422
1566.00,0.0420
1565.00,0.0418
1564.00,0.0416
1563.00,0.0416
1562.00,0.0416
1561.00,0.0416
1560.00,0.0413
1559.00,0.0411
1558.00,0.0411
1557.00,0.0411
1556.00,0.0409
1555.00,0.0406
1554.00,0.0404
1553.00,0.0402
1552.00,0.0400
1551.00,0.0398
1550.00,0.0397
1549.00,0.0396
1548.00,0.0395
1547.00,0.0395
1546.00,0.0395
1545.00,0.0395
1544.00,0.0396
1543.00,0.0397
1542.00,0.0397
1541.00,0.0394
1540.00,0.0389
1539.00,0.0384
1538.00,0.0381
1537.00,0.0379
1536.00,0.0377
1535.00,0.0374
1534.00,0.0370
1533.00,0.0366
1532.00,0.0363
1531.00,0.0361
1530.00,0.0360
1529.00,0.0358
1528.00,0.0356
1527.00,0.0354
1526.00,0.0354
1525.00,0.0354
1524.00,0.0353
1523.00,0.0352
1522.00,0.0349
1521.00,0.0348
1520.00,0.0346
1519.00,0.0345
1518.00,0.0344
1517.00,0.0341
1516.00,0.0338
1515.00,0.0336
1514.00,0.0335
1513.00,0.0334
1512.00,0.0333
1511.00,0.0333
1510.00,0.0333
1509.00,0.0333
1508.00,0.0332
1507.00,0.0331
1506.00,0.0328
1505.00,0.0325
1504.00,0.0323
1503.00,0.0322
1502.00,0.0322
1501.00,0.0322
1500.00,0.0321
1499.00,0.0321
1498.00,0.0320
1497.00,0.0320
1496.00,0.0319
1495.00,0.0319
1494.00,0.0321
1493.00,0.0322
1492.00,0.0323
1491.00,0.0324
1490.00,0.0326
1489.00,0.0328
1488.00,0.0330
1487.00,0.0331
1486.00,0.0333
1485.00,0.0335
1484.00,0.0338
1483.00,0.0340
1482.00,0.0343
1481.00,0.0347
1480.00,0.0351
1479.00,0.0355
1478.00,0.0359
1477.00,0.0363
1476.00,0.0367
1475.00,0.0370
1474.00,0.0373
1473.00,0.0376
1472.00,0.0379
1471.00,0.0380
1470.00,0.0382
1469.00,0.0383
1468.00,0.0384
1467.00,0.0385
1466.00,0.0387
1465.00,0.0388
1464.00,0.0390
1463.00,0.0392
1462.00,0.0394
1461.00,0.0396
1460.00,0.0398
1459.00,0.0400
1458.00,0.0401
1457.00,0.0404
1456.00,0.0408
1455.00,0.0411
1454.00,0.0412
1453.00,0.0413
1452.00,0.0413
1451.00,0.0413
1450.00,0.0413
1449.00,0.0414
1448.00,0.0414
1447.00,0.0415
1446.00,0.0417
1445.00,0.0418
1444.00,0.0419
1443.00,0.0421
1442.00,0.0423
1441.00,0.0425
1440.00,0.0428
1439.00,0.0431
1438.00,0.0432
1437.00,0.0434
1436.00,0.0437
1435.00,0.0440
1434.00,0.0442
1433.00,0.0444
1432.00,0.0446
1431.00,0.0447
1430.00,0.0448
1429.00,0.0450
1428.00,0.0451
1427.00,0.0452
1426.00,0.0453
1425.00,0.0454
1424.00,0.0455
1423.00,0.0456
1422.00,0.0457
1421.00,0.0457
1420.00,0.0457
1419.00,0.0458
1418.00,0.0460
1417.00,0.0460
1416.00,0.0460
1415.00,0.0459
1414.00,0.0458
1413.00,0.0458
1412.00,0.0457
1411.00,0.0457
1410.00,0.0456
1409.00,0.0456
1408.00,0.0455
1407.00,0.0454
1406.00,0.0454
1405.00,0.0454
1404.00,0.0453
1403.00,0.0452
1402.00,0.0450
1401.00,0.0449
1400.00,0.0446
1399.00,0.0444
1398.00,0.0442
1397.00,0.0440
1396.00,0.0439
1395.00,0.0437
1394.00,0.0437
1393.00,0.0437
1392.00,0.0437
1391.00,0.0439
1390.00,0.0441
1389.00,0.0444
1388.00,0.0450
1387.00,0.0457
1386.00,0.0464
1385.00,0.0472
1384.00,0.0478
1383.00,0.0484
1382.00,0.0490
1381.00,0.0496
1380.00,0.0500
1379.00,0.0504
1378.00,0.0506
1377.00,0.0508
1376.00,0.0509
1375.00,0.0509
1374.00,0.0509
1373.00,0.0508
1372.00,0.0507
1371.00,0.0504
1370.00,0.0501
1369.00,0.0497
1368.00,0.0494
1367.00,0.0490
1366.00,0.0487
1365.00,0.0484
1364.00,0.0481
1363.00,0.0479
1362.00,0.0479
1361.00,0.0478
1360.00,0.0478
1359.00,0.0478
1358.00,0.0478
1357.00,0.0478
1356.00,0.0477
1355.00,0.0477
1354.00,0.0476
1353.00,0.0474
1352.00,0.0472
1351.00,0.0468
1350.00,0.0464
1349.00,0.0459
1348.00,0.0454
1347.00,0.0450
1346.00,0.0445
1345.00,0.0440
1344.00,0.0436
1343.00,0.0432
1342.00,0.0429
1341.00,0.0427
1340.00,0.0425
1339.00,0.0424
1338.00,0.0423
1337.00,0.0423
1336.00,0.0422
1335.00,0.0421
1334.00,0.0420
1333.00,0.0419
1332.00,0.0419
1331.00,0.0420
1330.00,0.0420
1329.00,0.0421
1328.00,0.0422
1327.00,0.0423
1326.00,0.0424
1325.00,0.0425
1324.00,0.0426
1323.00,0.0427
1322.00,0.0427
1321.00,0.0428
1320.00,0.0428
1319.00,0.0428
1318.00,0.0429
1317.00,0.0429
1316.00,0.0429
1315.00,0.0429
1314.00,0.0430
1313.00,0.0431
1312.00,0.0432
1311.00,0.0433
1310.00,0.0434
1309.00,0.0436
1308.00,0.0437
1307.00,0.0440
1306.00,0.0443
1305.00,0.0447
1304.00,0.0451
1303.00,0.0456
1302.00,0.0461
1301.00,0.0466
1300.00,0.0472
1299.00,0.0479
1298.00,0.0487
1297.00,0.0496
1296.00,0.0506
1295.00,0.0517
1294.00,0.0529
1293.00,0.0542
1292.00,0.0556
1291.00,0.0571
1290.00,0.0586
1289.00,0.0603
1288.00,0.0619
1287.00,0.0637
1286.00,0.0655
1285.00,0.0675
1284.00,0.0696
1283.00,0.0718
1282.00,0.0740
1281.00,0.0764
1280.00,0.0788
1279.00,0.0813
1278.00,0.0838
1277.00,0.0864
1276.00,0.0891
1275.00,0.0918
1274.00,0.0947
1273.00,0.0975
1272.00,0.1004
1271.00,0.1033
1270.00,0.1061
1269.00,0.1088
1268.00,0.1113
1267.00,0.1137
1266.00,0.1160
1265.00,0.1181
1264.00,0.1202
1263.00,0.1221
1262.00,0.1239
1261.00,0.1256
1260.00,0.1273
1259.00,0.1288
1258.00,0.1301
1257.00,0.1312
1256.00,0.1322
1255.00,0.1332
1254.00,0.1340
1253.00,0.1348
1252.00,0.1354
1251.00,0.1360
1250.00,0.1365
1249.00,0.1369
1248.00,0.1374
1247.00,0.1378
1246.00,0.1382
1245.00,0.1387
1244.00,0.1392
1243.00,0.1398
1242.00,0.1404
1241.00,0.1411
1240.00,0.1419
1239.00,0.1428
1238.00,0.1437
1237.00,0.1447
1236.00,0.1456
1235.00,0.1465
1234.00,0.1472
1233.00,0.1480
1232.00,0.1486
1231.00,0.1493
1230.00,0.1498
1229.00,0.1502
1228.00,0.1505
1227.00,0.1505
1226.00,0.1504
1225.00,0.1501
1224.00,0.1498
1223.00,0.1492
1222.00,0.1486
1221.00,0.1478
1220.00,0.1468
1219.00,0.1457
1218.00,0.1443
1217.00,0.1427
1216.00,0.1410
1215.00,0.1390
1214.00,0.1369
1213.00,0.1346
1212.00,0.1322
1211.00,0.1296
1210.00,0.1269
1209.00,0.1242
1208.00,0.1215
1207.00,0.1187
1206.00,0.1160
1205.00,0.1134
1204.00,0.1108
1203.00,0.1083
1202.00,0.1060
1201.00,0.1040
1200.00,0.1024
1199.00,0.1010
1198.00,0.1001
1197.00,0.0995
1196.00,0.0990
1195.00,0.0986
1194.00,0.0981
1193.00,0.0974
1192.00,0.0965
1191.00,0.0952
1190.00,0.0936
1189.00,0.0917
1188.00,0.0895
1187.00,0.0872
1186.00,0.0851
1185.00,0.0831
1184.00,0.0815
1183.00,0.0802
1182.00,0.0792
1181.00,0.0786
1180.00,0.0783
1179.00,0.0783
1178.00,0.0785
1177.00,0.0790
1176.00,0.0798
1175.00,0.0807
1174.00,0.0819
1173.00,0.0833
1172.00,0.0849
1171.00,0.0867
1170.00,0.0887
1169.00,0.0910
1168.00,0.0934
1167.00,0.0960
1166.00,0.0987
1165.00,0.1013
1164.00,0.1038
1163.00,0.1060
1162.00,0.1080
1161.00,0.1096
1160.00,0.1109
1159.00,0.1118
1158.00,0.1124
1157.00,0.1125
1156.00,0.1123
1155.00,0.1118
1154.00,0.1110
1153.00,0.1099
1152.00,0.1086
1151.00,0.1070
1150.00,0.1053
1149.00,0.1035
1148.00,0.1016
1147.00,0.0997
1146.00,0.0978
1145.00,0.0960
1144.00,0.0945
1143.00,0.0932
1142.00,0.0922
1141.00,0.0915
1140.00,0.0912
1139.00,0.0913
1138.00,0.0918
1137.00,0.0927
1136.00,0.0940
1135.00,0.0958
1134.00,0.0979
1133.00,0.1004
1132.00,0.1030
1131.00,0.1057
1130.00,0.1083
1129.00,0.1106
1128.00,0.1126
1127.00,0.1140
1126.00,0.1147
1125.00,0.1146
1124.00,0.1138
1123.00,0.1125
1122.00,0.1108
1121.00,0.1091
1120.00,0.1073
1119.00,0.1057
1118.00,0.1041
1117.00,0.1027
1116.00,0.1015
1115.00,0.1004
1114.00,0.0995
1113.00,0.0987
1112.00,0.0981
1111.00,0.0975
1110.00,0.0971
1109.00,0.0969
1108.00,0.0971
1107.00,0.0977
1106.00,0.0986
1105.00,0.1001
1104.00,0.1019
1103.00,0.1041
1102.00,0.1068
1101.00,0.1097
1100.00,0.1129
1099.00,0.1164
1098.00,0.1198
1097.00,0.1232
1096.00,0.1262
1095.00,0.1289
1094.00,0.1313
1093.00,0.1334
1092.00,0.1354
1091.00,0.1373
1090.00,0.1391
1089.00,0.1411
1088.00,0.1433
1087.00,0.1455
1086.00,0.1479
1085.00,0.1505
1084.00,0.1533
1083.00,0.1563
1082.00,0.1595
1081.00,0.1630
1080.00,0.1668
1079.00,0.1709
1078.00,0.1751
1077.00,0.1794
1076.00,0.1838
1075.00,0.1881
1074.00,0.1924
1073.00,0.1966
1072.00,0.2006
1071.00,0.2044
1070.00,0.2077
1069.00,0.2106
1068.00,0.2127
1067.00,0.2138
1066.00,0.2138
1065.00,0.2128
1064.00,0.2106
1063.00,0.2075
1062.00,0.2038
1061.00,0.2000
1060.00,0.1966
1059.00,0.1936
1058.00,0.1914
1057.00,0.1899
1056.00,0.1890
1055.00,0.1886
1054.00,0.1886
1053.00,0.1891
1052.00,0.1899
1051.00,0.1909
1050.00,0.1922
1049.00,0.1939
1048.00,0.1961
1047.00,0.1987
1046.00,0.2017
1045.00,0.2049
1044.00,0.2080
1043.00,0.2104
1042.00,0.2122
1041.00,0.2131
1040.00,0.2132
1039.00,0.2125
1038.00,0.2113
1037.00,0.2098
1036.00,0.2082
1035.00,0.2069
1034.00,0.2059
1033.00,0.2055
1032.00,0.2056
1031.00,0.2058
1030.00,0.2060
1029.00,0.2057
1028.00,0.2046
1027.00,0.2026
1026.00,0.1995
1025.00,0.1955
1024.00,0.1908
1023.00,0.1855
1022.00,0.1798
1021.00,0.1741
1020.00,0.1686
1019.00,0.1633
1018.00,0.1583
1017.00,0.1538
1016.00,0.1498
1015.00,0.1464
1014.00,0.1436
1013.00,0.1414
1012.00,0.1398
1011.00,0.1389
1010.00,0.1385
1009.00,0.1385
1008.00,0.1389
1007.00,0.1394
1006.00,0.1399
1005.00,0.1401
1004.00,0.1398
1003.00,0.1386
1002.00,0.1365
1001.00,0.1336
1000.00,0.1300
999.00,0.1262
998.00,0.1224
997.00,0.1191
996.00,0.1164
995.00,0.1142
994.00,0.1128
993.00,0.1118
992.00,0.1112
991.00,0.1107
990.00,0.1104
989.00,0.1100
988.00,0.1094
987.00,0.1086
986.00,0.1074
985.00,0.1061
984.00,0.1049
983.00,0.1037
982.00,0.1028
981.00,0.1022
980.00,0.1018
979.00,0.1017
978.00,0.1019
977.00,0.1025
976.00,0.1032
975.00,0.1040
974.00,0.1050
973.00,0.1061
972.00,0.1071
971.00,0.1078
970.00,0.1080
969.00,0.1074
968.00,0.1058
967.00,0.1032
966.00,0.0999
965.00,0.0960
964.00,0.0921
963.00,0.0884
962.00,0.0851
961.00,0.0824
960.00,0.0801
959.00,0.0784
958.00,0.0771
957.00,0.0762
956.00,0.0758
955.00,0.0757
954.00,0.0759
953.00,0.0763
952.00,0.0769
951.00,0.0777
950.00,0.0786
949.00,0.0798
948.00,0.0810
947.00,0.0824
946.00,0.0841
945.00,0.0861
944.00,0.0884
943.00,0.0911
942.00,0.0944
941.00,0.0982
940.00,0.1027
939.00,0.1079
938.00,0.1136
937.00,0.1196
936.00,0.1257
935.00,0.1315
934.00,0.1369
933.00,0.1418
932.00,0.1460
931.00,0.1496
930.00,0.1527
929.00,0.1553
928.00,0.1574
927.00,0.1590
926.00,0.1600
925.00,0.1606
924.00,0.1608
923.00,0.1605
922.00,0.1600
921.00,0.1593
920.00,0.1582
919.00,0.1569
918.00,0.1553
917.00,0.1534
916.00,0.1512
915.00,0.1488
914.00,0.1462
913.00,0.1434
912.00,0.1404
911.00,0.1373
910.00,0.1342
909.00,0.1311
908.00,0.1282
907.00,0.1255
906.00,0.1232
905.00,0.1212
904.00,0.1196
903.00,0.1182
902.00,0.1171
901.00,0.1162
900.00,0.1155
899.00,0.1150
898.00,0.1146
897.00,0.1144
896.00,0.1143
895.00,0.1144
894.00,0.1145
893.00,0.1147
892.00,0.1147
891.00,0.1147
890.00,0.1144
889.00,0.1138
888.00,0.1128
887.00,0.1114
886.00,0.1094
885.00,0.1071
884.00,0.1044
883.00,0.1017
882.00,0.0991
881.00,0.0969
880.00,0.0952
879.00,0.0942
878.00,0.0940
877.00,0.0945
876.00,0.0954
875.00,0.0966
874.00,0.0976
873.00,0.0983
872.00,0.0986
871.00,0.0986
870.00,0.0985
869.00,0.0982
868.00,0.0980
867.00,0.0980
866.00,0.0983
865.00,0.0989
864.00,0.0998
863.00,0.1011
862.00,0.1028
861.00,0.1049
860.00,0.1072
859.00,0.1099
858.00,0.1129
857.00,0.1162
856.00,0.1199
855.00,0.1239
854.00,0.1280
853.00,0.1322
852.00,0.1363
851.00,0.1403
850.00,0.1441
849.00,0.1474
848.00,0.1501
847.00,0.1521
846.00,0.1531
845.00,0.1532
844.00,0.1521
843.00,0.1502
842.00,0.1474
841.00,0.1440
840.00,0.1402
839.00,0.1361
838.00,0.1321
837.00,0.1282
836.00,0.1247
835.00,0.1215
834.00,0.1187
833.00,0.1162
832.00,0.1141
831.00,0.1121
830.00,0.1105
829.00,0.1091
828.00,0.1079
827.00,0.1070
826.00,0.1063
825.00,0.1059
824.00,0.1057
823.00,0.1056
822.00,0.1055
821.00,0.1054
820.00,0.1053
819.00,0.1053
818.00,0.1055
817.00,0.1058
816.00,0.1062
815.00,0.1068
814.00,0.1074
813.00,0.1082
812.00,0.1090
811.00,0.1100
810.00,0.1112
809.00,0.1125
808.00,0.1139
807.00,0.1153
806.00,0.1167
805.00,0.1179
804.00,0.1190
803.00,0.1200
802.00,0.1208
801.00,0.1214
800.00,0.1218
799.00,0.1220
798.00,0.1221
797.00,0.1221
796.00,0.1217
795.00,0.1213
794.00,0.1209
793.00,0.1204
792.00,0.1201
791.00,0.1197
790.00,0.1195
789.00,0.1194
788.00,0.1192
787.00,0.1192
786.00,0.1193
785.00,0.1197
784.00,0.1202
783.00,0.1209
782.00,0.1217
781.00,0.1227
780.00,0.1237
779.00,0.1248
778.00,0.1262
777.00,0.1277
776.00,0.1291
775.00,0.1304
774.00,0.1314
773.00,0.1320
772.00,0.1322
771.00,0.1320
770.00,0.1315
769.00,0.1309
768.00,0.1303
767.00,0.1299
766.00,0.1297
765.00,0.1296
764.00,0.1298
763.00,0.1300
762.00,0.1302
761.00,0.1304
760.00,0.1308
759.00,0.1312
758.00,0.1317
757.00,0.1325
756.00,0.1336
755.00,0.1349
754.00,0.1364
753.00,0.1382
752.00,0.1402
751.00,0.1425
750.00,0.1450
749.00,0.1476
748.00,0.1503
747.00,0.1528
746.00,0.1554
745.00,0.1578
744.00,0.1600
743.00,0.1619
742.00,0.1636
741.00,0.1651
740.00,0.1666
739.00,0.1681
738.00,0.1695
737.00,0.1709
736.00,0.1719
735.00,0.1727
734.00,0.1733
733.00,0.1737
732.00,0.1741
731.00,0.1746
730.00,0.1752
729.00,0.1760
728.00,0.1770
727.00,0.1780
726.00,0.1790
725.00,0.1799
724.00,0.1804
723.00,0.1807
722.00,0.1808
721.00,0.1808
720.00,0.1806
719.00,0.1803
718.00,0.1802
717.00,0.1802
716.00,0.1806
715.00,0.1814
714.00,0.1825
713.00,0.1838
712.00,0.1855
711.00,0.1875
710.00,0.1898
709.00,0.1923
708.00,0.1949
707.00,0.1974
706.00,0.1998
705.00,0.2022
704.00,0.2041
703.00,0.2055
702.00,0.2064
701.00,0.2068
700.00,0.2067
699.00,0.2062
698.00,0.2054
697.00,0.2043
696.00,0.2029
695.00,0.2013
694.00,0.1997
693.00,0.1981
692.00,0.1966
691.00,0.1952
690.00,0.1938
689.00,0.1924
688.00,0.1912
687.00,0.1901
686.00,0.1894
685.00,0.1890
684.00,0.1886
683.00,0.1881
682.00,0.1878
681.00,0.1876
680.00,0.1875
679.00,0.1875
678.00,0.1877
677.00,0.1881
676.00,0.1887
675.00,0.1894
674.00,0.1903
673.00,0.1911
672.00,0.1917
671.00,0.1920
670.00,0.1922
669.00,0.1930
668.00,0.1948
667.00,0.1967
666.00,0.1975
665.00,0.1975
664.00,0.1975
663.00,0.1977
662.00,0.1982
661.00,0.1989
660.00,0.1998
659.00,0.2009
658.00,0.2019
657.00,0.2027
656.00,0.2029
655.00,0.2028
654.00,0.2024
653.00,0.2021
652.00,0.2019
651.00,0.2019
650.00,0.2020
649.00,0.2023
648.00,0.2028
647.00,0.2034
646.00,0.2041
645.00,0.2047
644.00,0.2052
643.00,0.2055
642.00,0.2058
641.00,0.2061
640.00,0.2064
639.00,0.2067
638.00,0.2071
637.00,0.2076
636.00,0.2083
635.00,0.2091
634.00,0.2101
633.00,0.2111
632.00,0.2121
631.00,0.2134
630.00,0.2148
629.00,0.2165
628.00,0.2183
627.00,0.2202
626.00,0.2221
625.00,0.2240
624.00,0.2258
623.00,0.2277
622.00,0.2296
621.00,0.2315
620.00,0.2334
619.00,0.2351
618.00,0.2367
617.00,0.2384
616.00,0.2401
615.00,0.2419
614.00,0.2437
613.00,0.2455
612.00,0.2474
611.00,0.2494
610.00,0.2515
609.00,0.2536
608.00,0.2556
607.00,0.2573
606.00,0.2589
605.00,0.2602
604.00,0.2610
603.00,0.2613
602.00,0.2613
601.00,0.2612
600.00,0.2613
599.00,0.2614
598.00,0.2618
597.00,0.2624
596.00,0.2632
595.00,0.2639
594.00,0.2644
593.00,0.2648
592.00,0.2652
591.00,0.2657
590.00,0.2662
589.00,0.2668
588.00,0.2676
587.00,0.2688
586.00,0.2705
585.00,0.2724
584.00,0.2745
583.00,0.2765
582.00,0.2782
581.00,0.2797
580.00,0.2810
579.00,0.2821
578.00,0.2830
577.00,0.2839
576.00,0.2849
575.00,0.2857
574.00,0.2860
573.00,0.2860
572.00,0.2858
571.00,0.2855
570.00,0.2852
569.00,0.2851
568.00,0.2851
567.00,0.2852
566.00,0.2851
565.00,0.2851
564.00,0.2850
563.00,0.2852
562.00,0.2855
561.00,0.2859
560.00,0.2862
559.00,0.2862
558.00,0.2859
557.00,0.2855
556.00,0.2852
555.00,0.2850
554.00,0.2850
553.00,0.2852
552.00,0.2856
551.00,0.2861
550.00,0.2866
549.00,0.2872
548.00,0.2881
547.00,0.2893
546.00,0.2905
545.00,0.2916
544.00,0.2925
543.00,0.2935
542.00,0.2943
541.00,0.2951
540.00,0.2957
539.00,0.2960
538.00,0.2961
537.00,0.2961
536.00,0.2960
535.00,0.2958
534.00,0.2954
533.00,0.2946
532.00,0.2936
531.00,0.2924
530.00,0.2915
529.00,0.2912
528.00,0.2915
527.00,0.2922
526.00,0.2930
525.00,0.2937
524.00,0.2942
523.00,0.2946
522.00,0.2950
521.00,0.2954
520.00,0.2960
519.00,0.2967
518.00,0.2974
517.00,0.2978
516.00,0.2979
515.00,0.2979
514.00,0.2978
513.00,0.2979
512.00,0.2982
511.00,0.2985
510.00,0.2986
509.00,0.2986
508.00,0.2987
507.00,0.2990
506.00,0.2993
505.00,0.2992
504.00,0.2988
503.00,0.2986
502.00,0.2987
501.00,0.2990
500.00,0.2991
499.00,0.2992
498.00,0.2995
497.00,0.3001
496.00,0.3008
495.00,0.3014
494.00,0.3017
493.00,0.3019
492.00,0.3019
491.00,0.3017
490.00,0.3015
489.00,0.3014
488.00,0.3015
487.00,0.3021
486.00,0.3032
485.00,0.3045
484.00,0.3056
483.00,0.3061
482.00,0.3064
481.00,0.3066
480.00,0.3069
479.00,0.3073
478.00,0.3075
477.00,0.3075
476.00,0.3075
475.00,0.3078
474.00,0.3085
473.00,0.3095
472.00,0.3104
471.00,0.3105
470.00,0.3102
469.00,0.3099
468.00,0.3105
467.00,0.3120
466.00,0.3136
465.00,0.3146
464.00,0.3149
463.00,0.3150
462.00,0.3152
461.00,0.3154
460.00,0.3158
459.00,0.3166
458.00,0.3179
457.00,0.3192
456.00,0.3204
455.00,0.3211
454.00,0.3216
453.00,0.3219
452.00,0.3227
451.00,0.3241
450.00,0.3257
