Created as New Dataset,Sample 005 By Administrator Date Thursday, May 29 2025
cm-1,A
4000.00,0.0068
3999.00,0.0068
3998.00,0.0068
3997.00,0.0068
3996.00,0.0068
3995.00,0.0068
3994.00,0.0068
3993.00,0.0068
3992.00,0.0068
3991.00,0.0068
3990.00,0.0068
3989.00,0.0068
3988.00,0.0068
3987.00,0.0068
3986.00,0.0069
3985.00,0.0069
3984.00,0.0069
3983.00,0.0069
3982.00,0.0069
3981.00,0.0069
3980.00,0.0069
3979.00,0.0070
3978.00,0.0070
3977.00,0.0070
3976.00,0.0070
3975.00,0.0069
3974.00,0.0069
3973.00,0.0069
3972.00,0.0069
3971.00,0.0069
3970.00,0.0069
3969.00,0.0069
3968.00,0.0069
3967.00,0.0069
3966.00,0.0070
3965.00,0.0070
3964.00,0.0071
3963.00,0.0071
3962.00,0.0071
3961.00,0.0070
3960.00,0.0070
3959.00,0.0070
3958.00,0.0070
3957.00,0.0070
3956.00,0.0070
3955.00,0.0071
3954.00,0.0071
3953.00,0.0071
3952.00,0.0071
3951.00,0.0072
3950.00,0.0072
3949.00,0.0072
3948.00,0.0072
3947.00,0.0072
3946.00,0.0072
3945.00,0.0072
3944.00,0.0071
3943.00,0.0071
3942.00,0.0070
3941.00,0.0070
3940.00,0.0070
3939.00,0.0070
3938.00,0.0070
3937.00,0.0071
3936.00,0.0071
3935.00,0.0072
3934.00,0.0073
3933.00,0.0073
3932.00,0.0073
3931.00,0.0073
3930.00,0.0072
3929.00,0.0072
3928.00,0.0073
3927.00,0.0073
3926.00,0.0073
3925.00,0.0073
3924.00,0.0073
3923.00,0.0073
3922.00,0.0074
3921.00,0.0075
3920.00,0.0076
3919.00,0.0076
3918.00,0.0076
3917.00,0.0075
3916.00,0.0073
3915.00,0.0072
3914.00,0.0071
3913.00,0.0070
3912.00,0.0070
3911.00,0.0070
3910.00,0.0070
3909.00,0.0071
3908.00,0.0071
3907.00,0.0073
3906.00,0.0074
3905.00,0.0076
3904.00,0.0078
3903.00,0.0079
3902.00,0.0080
3901.00,0.0080
3900.00,0.0078
3899.00,0.0077
3898.00,0.0075
3897.00,0.0075
3896.00,0.0075
3895.00,0.0074
3894.00,0.0074
3893.00,0.0073
3892.00,0.0073
3891.00,0.0073
3890.00,0.0073
3889.00,0.0074
3888.00,0.0076
3887.00,0.0078
3886.00,0.0078
3885.00,0.0077
3884.00,0.0076
3883.00,0.0077
3882.00,0.0077
3881.00,0.0077
3880.00,0.0076
3879.00,0.0076
3878.00,0.0076
3877.00,0.0076
3876.00,0.0077
3875.00,0.0077
3874.00,0.0077
3873.00,0.0077
3872.00,0.0078
3871.00,0.0080
3870.00,0.0080
3869.00,0.0079
3868.00,0.0078
3867.00,0.0079
3866.00,0.0080
3865.00,0.0080
3864.00,0.0079
3863.00,0.0078
3862.00,0.0078
3861.00,0.0078
3860.00,0.0078
3859.00,0.0078
3858.00,0.0076
3857.00,0.0074
3856.00,0.0074
3855.00,0.0075
3854.00,0.0076
3853.00,0.0076
3852.00,0.0076
3851.00,0.0076
3850.00,0.0077
3849.00,0.0077
3848.00,0.0078
3847.00,0.0078
3846.00,0.0079
3845.00,0.0079
3844.00,0.0079
3843.00,0.0079
3842.00,0.0080
3841.00,0.0080
3840.00,0.0080
3839.00,0.0079
3838.00,0.0079
3837.00,0.0079
3836.00,0.0079
3835.00,0.0079
3834.00,0.0079
3833.00,0.0078
3832.00,0.0078
3831.00,0.0078
3830.00,0.0078
3829.00,0.0078
3828.00,0.0078
3827.00,0.0078
3826.00,0.0078
3825.00,0.0079
3824.00,0.0080
3823.00,0.0082
3822.00,0.0082
3821.00,0.0081
3820.00,0.0079
3819.00,0.0079
3818.00,0.0079
3817.00,0.0079
3816.00,0.0078
3815.00,0.0076
3814.00,0.0076
3813.00,0.0076
3812.00,0.0076
3811.00,0.0076
3810.00,0.0076
3809.00,0.0076
3808.00,0.0077
3807.00,0.0077
3806.00,0.0078
3805.00,0.0078
3804.00,0.0080
3803.00,0.0081
3802.00,0.0081
3801.00,0.0080
3800.00,0.0079
3799.00,0.0080
3798.00,0.0081
3797.00,0.0080
3796.00,0.0079
3795.00,0.0078
3794.00,0.0077
3793.00,0.0077
3792.00,0.0076
3791.00,0.0076
3790.00,0.0075
3789.00,0.0076
3788.00,0.0077
3787.00,0.0077
3786.00,0.0077
3785.00,0.0077
3784.00,0.0077
3783.00,0.0078
3782.00,0.0079
3781.00,0.0080
3780.00,0.0080
3779.00,0.0080
3778.00,0.0079
3777.00,0.0079
3776.00,0.0079
3775.00,0.0080
3774.00,0.0080
3773.00,0.0081
3772.00,0.0082
3771.00,0.0083
3770.00,0.0084
3769.00,0.0084
3768.00,0.0084
3767.00,0.0085
3766.00,0.0085
3765.00,0.0084
3764.00,0.0084
3763.00,0.0084
3762.00,0.0086
3761.00,0.0087
3760.00,0.0088
3759.00,0.0088
3758.00,0.0088
3757.00,0.0088
3756.00,0.0089
3755.00,0.0090
3754.00,0.0092
3753.00,0.0094
3752.00,0.0095
3751.00,0.0096
3750.00,0.0097
3749.00,0.0097
3748.00,0.0097
3747.00,0.0096
3746.00,0.0095
3745.00,0.0095
3744.00,0.0094
3743.00,0.0093
3742.00,0.0094
3741.00,0.0095
3740.00,0.0096
3739.00,0.0098
3738.00,0.0099
3737.00,0.0100
3736.00,0.0100
3735.00,0.0099
3734.00,0.0098
3733.00,0.0098
3732.00,0.0098
3731.00,0.0097
3730.00,0.0096
3729.00,0.0096
3728.00,0.0097
3727.00,0.0098
3726.00,0.0097
3725.00,0.0097
3724.00,0.0097
3723.00,0.0098
3722.00,0.0098
3721.00,0.0097
3720.00,0.0097
3719.00,0.0096
3718.00,0.0096
3717.00,0.0096
3716.00,0.0097
3715.00,0.0099
3714.00,0.0101
3713.00,0.0102
3712.00,0.0103
3711.00,0.0103
3710.00,0.0103
3709.00,0.0104
3708.00,0.0104
3707.00,0.0103
3706.00,0.0103
3705.00,0.0103
3704.00,0.0103
3703.00,0.0104
3702.00,0.0104
3701.00,0.0105
3700.00,0.0106
3699.00,0.0108
3698.00,0.0109
3697.00,0.0111
3696.00,0.0112
3695.00,0.0113
3694.00,0.0115
3693.00,0.0117
3692.00,0.0119
3691.00,0.0120
3690.00,0.0122
3689.00,0.0124
3688.00,0.0126
3687.00,0.0127
3686.00,0.0129
3685.00,0.0130
3684.00,0.0132
3683.00,0.0135
3682.00,0.0137
3681.00,0.0139
3680.00,0.0141
3679.00,0.0143
3678.00,0.0146
3677.00,0.0150
3676.00,0.0153
3675.00,0.0157
3674.00,0.0160
3673.00,0.0165
3672.00,0.0170
3671.00,0.0174
3670.00,0.0175
3669.00,0.0176
3668.00,0.0178
3667.00,0.0181
3666.00,0.0183
3665.00,0.0186
3664.00,0.0189
3663.00,0.0193
3662.00,0.0196
3661.00,0.0200
3660.00,0.0204
3659.00,0.0209
3658.00,0.0214
3657.00,0.0219
3656.00,0.0225
3655.00,0.0230
3654.00,0.0236
3653.00,0.0242
3652.00,0.0249
3651.00,0.0255
3650.00,0.0261
3649.00,0.0267
3648.00,0.0274
3647.00,0.0280
3646.00,0.0285
3645.00,0.0289
3644.00,0.0293
3643.00,0.0297
3642.00,0.0301
3641.00,0.0306
3640.00,0.0311
3639.00,0.0317
3638.00,0.0323
3637.00,0.0329
3636.00,0.0335
3635.00,0.0342
3634.00,0.0348
3633.00,0.0353
3632.00,0.0358
3631.00,0.0366
3630.00,0.0374
3629.00,0.0383
3628.00,0.0391
3627.00,0.0398
3626.00,0.0404
3625.00,0.0410
3624.00,0.0416
3623.00,0.0422
3622.00,0.0427
3621.00,0.0433
3620.00,0.0440
3619.00,0.0447
3618.00,0.0455
3617.00,0.0464
3616.00,0.0471
3615.00,0.0478
3614.00,0.0484
3613.00,0.0490
3612.00,0.0497
3611.00,0.0505
3610.00,0.0512
3609.00,0.0519
3608.00,0.0525
3607.00,0.0530
3606.00,0.0535
3605.00,0.0540
3604.00,0.0546
3603.00,0.0551
3602.00,0.0557
3601.00,0.0564
3600.00,0.0571
3599.00,0.0577
3598.00,0.0583
3597.00,0.0589
3596.00,0.0595
3595.00,0.0602
3594.00,0.0608
3593.00,0.0615
3592.00,0.0621
3591.00,0.0628
3590.00,0.0635
3589.00,0.0642
3588.00,0.0649
3587.00,0.0656
3586.00,0.0663
3585.00,0.0670
3584.00,0.0676
3583.00,0.0681
3582.00,0.0686
3581.00,0.0691
3580.00,0.0696
3579.00,0.0700
3578.00,0.0706
3577.00,0.0711
3576.00,0.0717
3575.00,0.0723
3574.00,0.0729
3573.00,0.0736
3572.00,0.0742
3571.00,0.0748
3570.00,0.0754
3569.00,0.0761
3568.00,0.0767
3567.00,0.0774
3566.00,0.0782
3565.00,0.0789
3564.00,0.0795
3563.00,0.0801
3562.00,0.0805
3561.00,0.0809
3560.00,0.0813
3559.00,0.0818
3558.00,0.0823
3557.00,0.0829
3556.00,0.0834
3555.00,0.0840
3554.00,0.0845
3553.00,0.0850
3552.00,0.0856
3551.00,0.0861
3550.00,0.0868
3549.00,0.0874
3548.00,0.0880
3547.00,0.0887
3546.00,0.0893
3545.00,0.0899
3544.00,0.0904
3543.00,0.0909
3542.00,0.0914
3541.00,0.0919
3540.00,0.0924
3539.00,0.0928
3538.00,0.0933
3537.00,0.0937
3536.00,0.0942
3535.00,0.0948
3534.00,0.0953
3533.00,0.0960
3532.00,0.0965
3531.00,0.0971
3530.00,0.0976
3529.00,0.0982
3528.00,0.0988
3527.00,0.0994
3526.00,0.1001
3525.00,0.1007
3524.00,0.1012
3523.00,0.1017
3522.00,0.1022
3521.00,0.1027
3520.00,0.1032
3519.00,0.1036
3518.00,0.1041
3517.00,0.1045
3516.00,0.1050
3515.00,0.1056
3514.00,0.1061
3513.00,0.1066
3512.00,0.1071
3511.00,0.1076
3510.00,0.1081
3509.00,0.1086
3508.00,0.1092
3507.00,0.1098
3506.00,0.1105
3505.00,0.1111
3504.00,0.1116
3503.00,0.1122
3502.00,0.1127
3501.00,0.1131
3500.00,0.1136
3499.00,0.1141
3498.00,0.1145
3497.00,0.1150
3496.00,0.1155
3495.00,0.1160
3494.00,0.1165
3493.00,0.1169
3492.00,0.1174
3491.00,0.1178
3490.00,0.1184
3489.00,0.1189
3488.00,0.1195
3487.00,0.1199
3486.00,0.1204
3485.00,0.1208
3484.00,0.1212
3483.00,0.1217
3482.00,0.1222
3481.00,0.1227
3480.00,0.1232
3479.00,0.1237
3478.00,0.1241
3477.00,0.1246
3476.00,0.1250
3475.00,0.1255
3474.00,0.1260
3473.00,0.1266
3472.00,0.1271
3471.00,0.1277
3470.00,0.1282
3469.00,0.1286
3468.00,0.1290
3467.00,0.1294
3466.00,0.1298
3465.00,0.1302
3464.00,0.1306
3463.00,0.1311
3462.00,0.1316
3461.00,0.1321
3460.00,0.1325
3459.00,0.1329
3458.00,0.1333
3457.00,0.1336
3456.00,0.1340
3455.00,0.1344
3454.00,0.1348
3453.00,0.1352
3452.00,0.1356
3451.00,0.1360
3450.00,0.1365
3449.00,0.1369
3448.00,0.1373
3447.00,0.1377
3446.00,0.1381
3445.00,0.1385
3444.00,0.1388
3443.00,0.1392
3442.00,0.1396
3441.00,0.1399
3440.00,0.1403
3439.00,0.1407
3438.00,0.1411
3437.00,0.1415
3436.00,0.1418
3435.00,0.1421
3434.00,0.1423
3433.00,0.1426
3432.00,0.1430
3431.00,0.1433
3430.00,0.1436
3429.00,0.1439
3428.00,0.1442
3427.00,0.1444
3426.00,0.1446
3425.00,0.1448
3424.00,0.1451
3423.00,0.1453
3422.00,0.1456
3421.00,0.1458
3420.00,0.1461
3419.00,0.1463
3418.00,0.1466
3417.00,0.1468
3416.00,0.1471
3415.00,0.1473
3414.00,0.1476
3413.00,0.1478
3412.00,0.1480
3411.00,0.1482
3410.00,0.1484
3409.00,0.1485
3408.00,0.1486
3407.00,0.1487
3406.00,0.1489
3405.00,0.1491
3404.00,0.1493
3403.00,0.1495
3402.00,0.1497
3401.00,0.1498
3400.00,0.1499
3399.00,0.1499
3398.00,0.1499
3397.00,0.1499
3396.00,0.1500
3395.00,0.1500
3394.00,0.1501
3393.00,0.1501
3392.00,0.1501
3391.00,0.1501
3390.00,0.1501
3389.00,0.1501
3388.00,0.1501
3387.00,0.1500
3386.00,0.1500
3385.00,0.1499
3384.00,0.1499
3383.00,0.1499
3382.00,0.1499
3381.00,0.1498
3380.00,0.1497
3379.00,0.1496
3378.00,0.1495
3377.00,0.1494
3376.00,0.1493
3375.00,0.1492
3374.00,0.1491
3373.00,0.1490
3372.00,0.1489
3371.00,0.1489
3370.00,0.1488
3369.00,0.1487
3368.00,0.1486
3367.00,0.1483
3366.00,0.1480
3365.00,0.1477
3364.00,0.1475
3363.00,0.1473
3362.00,0.1471
3361.00,0.1469
3360.00,0.1467
3359.00,0.1464
3358.00,0.1461
3357.00,0.1458
3356.00,0.1455
3355.00,0.1453
3354.00,0.1451
3353.00,0.1449
3352.00,0.1446
3351.00,0.1444
3350.00,0.1441
3349.00,0.1438
3348.00,0.1435
3347.00,0.1432
3346.00,0.1429
3345.00,0.1426
3344.00,0.1422
3343.00,0.1419
3342.00,0.1416
3341.00,0.1413
3340.00,0.1411
3339.00,0.1408
3338.00,0.1404
3337.00,0.1400
3336.00,0.1396
3335.00,0.1392
3334.00,0.1389
3333.00,0.1385
3332.00,0.1382
3331.00,0.1379
3330.00,0.1376
3329.00,0.1372
3328.00,0.1369
3327.00,0.1366
3326.00,0.1362
3325.00,0.1359
3324.00,0.1355
3323.00,0.1352
3322.00,0.1348
3321.00,0.1345
3320.00,0.1341
3319.00,0.1338
3318.00,0.1334
3317.00,0.1331
3316.00,0.1327
3315.00,0.1324
3314.00,0.1320
3313.00,0.1317
3312.00,0.1314
3311.00,0.1311
3310.00,0.1308
3309.00,0.1305
3308.00,0.1302
3307.00,0.1299
3306.00,0.1296
3305.00,0.1293
3304.00,0.1289
3303.00,0.1286
3302.00,0.1282
3301.00,0.1279
3300.00,0.1275
3299.00,0.1272
3298.00,0.1269
3297.00,0.1266
3296.00,0.1264
3295.00,0.1261
3294.00,0.1258
3293.00,0.1254
3292.00,0.1251
3291.00,0.1248
3290.00,0.1245
3289.00,0.1242
3288.00,0.1239
3287.00,0.1236
3286.00,0.1233
3285.00,0.1229
3284.00,0.1226
3283.00,0.1223
3282.00,0.1220
3281.00,0.1217
3280.00,0.1213
3279.00,0.1210
3278.00,0.1207
3277.00,0.1204
3276.00,0.1201
3275.00,0.1198
3274.00,0.1195
3273.00,0.1192
3272.00,0.1189
3271.00,0.1186
3270.00,0.1183
3269.00,0.1179
3268.00,0.1176
3267.00,0.1173
3266.00,0.1169
3265.00,0.1166
3264.00,0.1163
3263.00,0.1159
3262.00,0.1156
3261.00,0.1152
3260.00,0.1149
3259.00,0.1145
3258.00,0.1142
3257.00,0.1138
3256.00,0.1135
3255.00,0.1132
3254.00,0.1128
3253.00,0.1125
3252.00,0.1121
3251.00,0.1117
3250.00,0.1113
3249.00,0.1109
3248.00,0.1105
3247.00,0.1101
3246.00,0.1097
3245.00,0.1093
3244.00,0.1089
3243.00,0.1085
3242.00,0.1082
3241.00,0.1077
3240.00,0.1073
3239.00,0.1069
3238.00,0.1064
3237.00,0.1060
3236.00,0.1056
3235.00,0.1052
3234.00,0.1048
3233.00,0.1044
3232.00,0.1039
3231.00,0.1033
3230.00,0.1028
3229.00,0.1023
3228.00,0.1019
3227.00,0.1014
3226.00,0.1009
3225.00,0.1005
3224.00,0.1000
3223.00,0.0995
3222.00,0.0990
3221.00,0.0985
3220.00,0.0980
3219.00,0.0975
3218.00,0.0970
3217.00,0.0965
3216.00,0.0960
3215.00,0.0954
3214.00,0.0949
3213.00,0.0944
3212.00,0.0939
3211.00,0.0934
3210.00,0.0929
3209.00,0.0924
3208.00,0.0918
3207.00,0.0913
3206.00,0.0907
3205.00,0.0902
3204.00,0.0896
3203.00,0.0890
3202.00,0.0885
3201.00,0.0880
3200.00,0.0874
3199.00,0.0869
3198.00,0.0864
3197.00,0.0858
3196.00,0.0853
3195.00,0.0847
3194.00,0.0841
3193.00,0.0836
3192.00,0.0831
3191.00,0.0826
3190.00,0.0821
3189.00,0.0815
3188.00,0.0810
3187.00,0.0804
3186.00,0.0798
3185.00,0.0793
3184.00,0.0787
3183.00,0.0782
3182.00,0.0777
3181.00,0.0772
3180.00,0.0767
3179.00,0.0762
3178.00,0.0756
3177.00,0.0751
3176.00,0.0746
3175.00,0.0741
3174.00,0.0736
3173.00,0.0731
3172.00,0.0726
3171.00,0.0720
3170.00,0.0715
3169.00,0.0710
3168.00,0.0705
3167.00,0.0699
3166.00,0.0694
3165.00,0.0689
3164.00,0.0684
3163.00,0.0679
3162.00,0.0674
3161.00,0.0669
3160.00,0.0664
3159.00,0.0660
3158.00,0.0655
3157.00,0.0651
3156.00,0.0646
3155.00,0.0642
3154.00,0.0638
3153.00,0.0633
3152.00,0.0628
3151.00,0.0623
3150.00,0.0618
3149.00,0.0613
3148.00,0.0608
3147.00,0.0603
3146.00,0.0599
3145.00,0.0594
3144.00,0.0590
3143.00,0.0586
3142.00,0.0582
3141.00,0.0579
3140.00,0.0574
3139.00,0.0570
3138.00,0.0566
3137.00,0.0561
3136.00,0.0557
3135.00,0.0552
3134.00,0.0548
3133.00,0.0544
3132.00,0.0540
3131.00,0.0537
3130.00,0.0533
3129.00,0.0530
3128.00,0.0526
3127.00,0.0522
3126.00,0.0518
3125.00,0.0514
3124.00,0.0511
3123.00,0.0507
3122.00,0.0504
3121.00,0.0500
3120.00,0.0497
3119.00,0.0494
3118.00,0.0490
3117.00,0.0487
3116.00,0.0483
3115.00,0.0479
3114.00,0.0476
3113.00,0.0472
3112.00,0.0468
3111.00,0.0465
3110.00,0.0461
3109.00,0.0458
3108.00,0.0454
3107.00,0.0451
3106.00,0.0448
3105.00,0.0446
3104.00,0.0443
3103.00,0.0440
3102.00,0.0437
3101.00,0.0434
3100.00,0.0431
3099.00,0.0428
3098.00,0.0425
3097.00,0.0422
3096.00,0.0419
3095.00,0.0416
3094.00,0.0413
3093.00,0.0410
3092.00,0.0407
3091.00,0.0404
3090.00,0.0401
3089.00,0.0399
3088.00,0.0396
3087.00,0.0394
3086.00,0.0391
3085.00,0.0388
3084.00,0.0385
3083.00,0.0382
3082.00,0.0379
3081.00,0.0377
3080.00,0.0374
3079.00,0.0372
3078.00,0.0370
3077.00,0.0368
3076.00,0.0365
3075.00,0.0363
3074.00,0.0360
3073.00,0.0358
3072.00,0.0355
3071.00,0.0353
3070.00,0.0351
3069.00,0.0349
3068.00,0.0347
3067.00,0.0345
3066.00,0.0342
3065.00,0.0340
3064.00,0.0338
3063.00,0.0335
3062.00,0.0333
3061.00,0.0331
3060.00,0.0329
3059.00,0.0327
3058.00,0.0325
3057.00,0.0323
3056.00,0.0321
3055.00,0.0319
3054.00,0.0317
3053.00,0.0316
3052.00,0.0314
3051.00,0.0312
3050.00,0.0310
3049.00,0.0308
3048.00,0.0306
3047.00,0.0304
3046.00,0.0302
3045.00,0.0300
3044.00,0.0298
3043.00,0.0296
3042.00,0.0295
3041.00,0.0293
3040.00,0.0291
3039.00,0.0289
3038.00,0.0288
3037.00,0.0286
3036.00,0.0285
3035.00,0.0283
3034.00,0.0282
3033.00,0.0281
3032.00,0.0279
3031.00,0.0278
3030.00,0.0277
3029.00,0.0275
3028.00,0.0274
3027.00,0.0272
3026.00,0.0271
3025.00,0.0269
3024.00,0.0268
3023.00,0.0268
3022.00,0.0267
3021.00,0.0266
3020.00,0.0265
3019.00,0.0263
3018.00,0.0262
3017.00,0.0261
3016.00,0.0260
3015.00,0.0259
3014.00,0.0258
3013.00,0.0257
3012.00,0.0256
3011.00,0.0255
3010.00,0.0254
3009.00,0.0253
3008.00,0.0252
3007.00,0.0251
3006.00,0.0250
3005.00,0.0250
3004.00,0.0249
3003.00,0.0248
3002.00,0.0247
3001.00,0.0246
3000.00,0.0246
2999.00,0.0246
2998.00,0.0246
2997.00,0.0246
2996.00,0.0245
2995.00,0.0245
2994.00,0.0245
2993.00,0.0245
2992.00,0.0245
2991.00,0.0245
2990.00,0.0245
2989.00,0.0245
2988.00,0.0245
2987.00,0.0245
2986.00,0.0245
2985.00,0.0245
2984.00,0.0246
2983.00,0.0246
2982.00,0.0247
2981.00,0.0247
2980.00,0.0248
2979.00,0.0248
2978.00,0.0249
2977.00,0.0249
2976.00,0.0250
2975.00,0.0251
2974.00,0.0251
2973.00,0.0252
2972.00,0.0252
2971.00,0.0252
2970.00,0.0252
2969.00,0.0253
2968.00,0.0253
2967.00,0.0253
2966.00,0.0254
2965.00,0.0254
2964.00,0.0254
2963.00,0.0255
2962.00,0.0255
2961.00,0.0255
2960.00,0.0255
2959.00,0.0254
2958.00,0.0254
2957.00,0.0254
2956.00,0.0254
2955.00,0.0254
2954.00,0.0253
2953.00,0.0253
2952.00,0.0252
2951.00,0.0252
2950.00,0.0251
2949.00,0.0251
2948.00,0.0251
2947.00,0.0251
2946.00,0.0251
2945.00,0.0251
2944.00,0.0252
2943.00,0.0252
2942.00,0.0252
2941.00,0.0253
2940.00,0.0253
2939.00,0.0253
2938.00,0.0253
2937.00,0.0254
2936.00,0.0254
2935.00,0.0256
2934.00,0.0257
2933.00,0.0258
2932.00,0.0259
2931.00,0.0260
2930.00,0.0261
2929.00,0.0262
2928.00,0.0263
2927.00,0.0264
2926.00,0.0265
2925.00,0.0266
2924.00,0.0266
2923.00,0.0267
2922.00,0.0268
2921.00,0.0269
2920.00,0.0269
2919.00,0.0269
2918.00,0.0268
2917.00,0.0266
2916.00,0.0264
2915.00,0.0262
2914.00,0.0259
2913.00,0.0256
2912.00,0.0254
2911.00,0.0252
2910.00,0.0250
2909.00,0.0247
2908.00,0.0245
2907.00,0.0243
2906.00,0.0241
2905.00,0.0239
2904.00,0.0237
2903.00,0.0236
2902.00,0.0234
2901.00,0.0232
2900.00,0.0231
2899.00,0.0229
2898.00,0.0227
2897.00,0.0225
2896.00,0.0224
2895.00,0.0222
2894.00,0.0221
2893.00,0.0219
2892.00,0.0218
2891.00,0.0216
2890.00,0.0215
2889.00,0.0213
2888.00,0.0212
2887.00,0.0210
2886.00,0.0209
2885.00,0.0208
2884.00,0.0207
2883.00,0.0206
2882.00,0.0205
2881.00,0.0203
2880.00,0.0202
2879.00,0.0200
2878.00,0.0199
2877.00,0.0198
2876.00,0.0198
2875.00,0.0197
2874.00,0.0196
2873.00,0.0195
2872.00,0.0194
2871.00,0.0192
2870.00,0.0191
2869.00,0.0190
2868.00,0.0190
2867.00,0.0189
2866.00,0.0188
2865.00,0.0187
2864.00,0.0186
2863.00,0.0185
2862.00,0.0185
2861.00,0.0185
2860.00,0.0185
2859.00,0.0185
2858.00,0.0185
2857.00,0.0186
2856.00,0.0186
2855.00,0.0186
2854.00,0.0187
2853.00,0.0187
2852.00,0.0186
2851.00,0.0185
2850.00,0.0184
2849.00,0.0181
2848.00,0.0179
2847.00,0.0176
2846.00,0.0172
2845.00,0.0169
2844.00,0.0166
2843.00,0.0163
2842.00,0.0161
2841.00,0.0160
2840.00,0.0158
2839.00,0.0156
2838.00,0.0155
2837.00,0.0154
2836.00,0.0153
2835.00,0.0152
2834.00,0.0151
2833.00,0.0150
2832.00,0.0149
2831.00,0.0148
2830.00,0.0147
2829.00,0.0146
2828.00,0.0145
2827.00,0.0144
2826.00,0.0143
2825.00,0.0143
2824.00,0.0143
2823.00,0.0142
2822.00,0.0141
2821.00,0.0141
2820.00,0.0140
2819.00,0.0139
2818.00,0.0139
2817.00,0.0139
2816.00,0.0138
2815.00,0.0138
2814.00,0.0137
2813.00,0.0136
2812.00,0.0136
2811.00,0.0135
2810.00,0.0135
2809.00,0.0135
2808.00,0.0134
2807.00,0.0133
2806.00,0.0133
2805.00,0.0132
2804.00,0.0132
2803.00,0.0132
2802.00,0.0131
2801.00,0.0131
2800.00,0.0131
2799.00,0.0131
2798.00,0.0130
2797.00,0.0130
2796.00,0.0129
2795.00,0.0129
2794.00,0.0129
2793.00,0.0128
2792.00,0.0128
2791.00,0.0128
2790.00,0.0128
2789.00,0.0127
2788.00,0.0127
2787.00,0.0126
2786.00,0.0126
2785.00,0.0126
2784.00,0.0125
2783.00,0.0125
2782.00,0.0125
2781.00,0.0124
2780.00,0.0124
2779.00,0.0124
2778.00,0.0123
2777.00,0.0123
2776.00,0.0122
2775.00,0.0122
2774.00,0.0121
2773.00,0.0121
2772.00,0.0121
2771.00,0.0120
2770.00,0.0119
2769.00,0.0119
2768.00,0.0119
2767.00,0.0119
2766.00,0.0119
2765.00,0.0118
2764.00,0.0118
2763.00,0.0118
2762.00,0.0118
2761.00,0.0117
2760.00,0.0117
2759.00,0.0117
2758.00,0.0116
2757.00,0.0116
2756.00,0.0116
2755.00,0.0116
2754.00,0.0116
2753.00,0.0116
2752.00,0.0116
2751.00,0.0116
2750.00,0.0115
2749.00,0.0115
2748.00,0.0115
2747.00,0.0114
2746.00,0.0114
2745.00,0.0114
2744.00,0.0113
2743.00,0.0113
2742.00,0.0112
2741.00,0.0112
2740.00,0.0112
2739.00,0.0112
2738.00,0.0112
2737.00,0.0112
2736.00,0.0112
2735.00,0.0112
2734.00,0.0112
2733.00,0.0111
2732.00,0.0111
2731.00,0.0111
2730.00,0.0111
2729.00,0.0110
2728.00,0.0110
2727.00,0.0110
2726.00,0.0110
2725.00,0.0110
2724.00,0.0110
2723.00,0.0110
2722.00,0.0110
2721.00,0.0109
2720.00,0.0109
2719.00,0.0109
2718.00,0.0109
2717.00,0.0109
2716.00,0.0109
2715.00,0.0109
2714.00,0.0109
2713.00,0.0108
2712.00,0.0108
2711.00,0.0107
2710.00,0.0107
2709.00,0.0107
2708.00,0.0107
2707.00,0.0107
2706.00,0.0107
2705.00,0.0106
2704.00,0.0106
2703.00,0.0106
2702.00,0.0106
2701.00,0.0105
2700.00,0.0105
2699.00,0.0105
2698.00,0.0105
2697.00,0.0105
2696.00,0.0105
2695.00,0.0105
2694.00,0.0104
2693.00,0.0104
2692.00,0.0104
2691.00,0.0104
2690.00,0.0104
2689.00,0.0104
2688.00,0.0104
2687.00,0.0104
2686.00,0.0103
2685.00,0.0103
2684.00,0.0102
2683.00,0.0102
2682.00,0.0102
2681.00,0.0102
2680.00,0.0102
2679.00,0.0102
2678.00,0.0102
2677.00,0.0102
2676.00,0.0102
2675.00,0.0101
2674.00,0.0101
2673.00,0.0101
2672.00,0.0101
2671.00,0.0101
2670.00,0.0101
2669.00,0.0101
2668.00,0.0101
2667.00,0.0101
2666.00,0.0102
2665.00,0.0102
2664.00,0.0103
2663.00,0.0103
2662.00,0.0104
2661.00,0.0105
2660.00,0.0105
2659.00,0.0106
2658.00,0.0107
2657.00,0.0107
2656.00,0.0107
2655.00,0.0107
2654.00,0.0107
2653.00,0.0106
2652.00,0.0106
2651.00,0.0106
2650.00,0.0105
2649.00,0.0105
2648.00,0.0105
2647.00,0.0105
2646.00,0.0105
2645.00,0.0105
2644.00,0.0105
2643.00,0.0104
2642.00,0.0104
2641.00,0.0103
2640.00,0.0103
2639.00,0.0103
2638.00,0.0103
2637.00,0.0102
2636.00,0.0102
2635.00,0.0101
2634.00,0.0101
2633.00,0.0100
2632.00,0.0100
2631.00,0.0100
2630.00,0.0100
2629.00,0.0100
2628.00,0.0099
2627.00,0.0099
2626.00,0.0099
2625.00,0.0098
2624.00,0.0098
2623.00,0.0098
2622.00,0.0098
2621.00,0.0097
2620.00,0.0097
2619.00,0.0096
2618.00,0.0096
2617.00,0.0096
2616.00,0.0095
2615.00,0.0095
2614.00,0.0095
2613.00,0.0095
2612.00,0.0095
2611.00,0.0095
2610.00,0.0094
2609.00,0.0094
2608.00,0.0094
2607.00,0.0093
2606.00,0.0093
2605.00,0.0092
2604.00,0.0092
2603.00,0.0091
2602.00,0.0091
2601.00,0.0091
2600.00,0.0091
2599.00,0.0092
2598.00,0.0092
2597.00,0.0092
2596.00,0.0091
2595.00,0.0091
2594.00,0.0090
2593.00,0.0090
2592.00,0.0089
2591.00,0.0089
2590.00,0.0089
2589.00,0.0090
2588.00,0.0090
2587.00,0.0090
2586.00,0.0089
2585.00,0.0088
2584.00,0.0087
2583.00,0.0087
2582.00,0.0086
2581.00,0.0086
2580.00,0.0086
2579.00,0.0086
2578.00,0.0086
2577.00,0.0087
2576.00,0.0087
2575.00,0.0086
2574.00,0.0086
2573.00,0.0086
2572.00,0.0086
2571.00,0.0086
2570.00,0.0085
2569.00,0.0085
2568.00,0.0085
2567.00,0.0085
2566.00,0.0084
2565.00,0.0084
2564.00,0.0084
2563.00,0.0084
2562.00,0.0083
2561.00,0.0083
2560.00,0.0083
2559.00,0.0083
2558.00,0.0084
2557.00,0.0084
2556.00,0.0083
2555.00,0.0083
2554.00,0.0082
2553.00,0.0082
2552.00,0.0082
2551.00,0.0082
2550.00,0.0083
2549.00,0.0083
2548.00,0.0082
2547.00,0.0082
2546.00,0.0081
2545.00,0.0081
2544.00,0.0082
2543.00,0.0082
2542.00,0.0081
2541.00,0.0081
2540.00,0.0081
2539.00,0.0081
2538.00,0.0082
2537.00,0.0082
2536.00,0.0082
2535.00,0.0082
2534.00,0.0082
2533.00,0.0082
2532.00,0.0082
2531.00,0.0081
2530.00,0.0081
2529.00,0.0080
2528.00,0.0080
2527.00,0.0079
2526.00,0.0079
2525.00,0.0079
2524.00,0.0079
2523.00,0.0079
2522.00,0.0080
2521.00,0.0080
2520.00,0.0079
2519.00,0.0079
2518.00,0.0079
2517.00,0.0079
2516.00,0.0079
2515.00,0.0079
2514.00,0.0079
2513.00,0.0080
2512.00,0.0080
2511.00,0.0080
2510.00,0.0080
2509.00,0.0080
2508.00,0.0079
2507.00,0.0079
2506.00,0.0080
2505.00,0.0080
2504.00,0.0079
2503.00,0.0079
2502.00,0.0079
2501.00,0.0079
2500.00,0.0079
2499.00,0.0079
2498.00,0.0079
2497.00,0.0079
2496.00,0.0079
2495.00,0.0079
2494.00,0.0078
2493.00,0.0078
2492.00,0.0079
2491.00,0.0079
2490.00,0.0079
2489.00,0.0079
2488.00,0.0079
2487.00,0.0078
2486.00,0.0078
2485.00,0.0078
2484.00,0.0078
2483.00,0.0077
2482.00,0.0077
2481.00,0.0077
2480.00,0.0076
2479.00,0.0076
2478.00,0.0076
2477.00,0.0077
2476.00,0.0077
2475.00,0.0078
2474.00,0.0078
2473.00,0.0078
2472.00,0.0078
2471.00,0.0078
2470.00,0.0078
2469.00,0.0078
2468.00,0.0078
2467.00,0.0077
2466.00,0.0077
2465.00,0.0077
2464.00,0.0078
2463.00,0.0079
2462.00,0.0079
2461.00,0.0079
2460.00,0.0080
2459.00,0.0080
2458.00,0.0081
2457.00,0.0081
2456.00,0.0081
2455.00,0.0081
2454.00,0.0081
2453.00,0.0081
2452.00,0.0082
2451.00,0.0081
2450.00,0.0081
2449.00,0.0081
2448.00,0.0080
2447.00,0.0080
2446.00,0.0080
2445.00,0.0079
2444.00,0.0079
2443.00,0.0079
2442.00,0.0078
2441.00,0.0078
2440.00,0.0078
2439.00,0.0078
2438.00,0.0078
2437.00,0.0078
2436.00,0.0077
2435.00,0.0077
2434.00,0.0077
2433.00,0.0078
2432.00,0.0078
2431.00,0.0078
2430.00,0.0077
2429.00,0.0077
2428.00,0.0077
2427.00,0.0077
2426.00,0.0077
2425.00,0.0076
2424.00,0.0077
2423.00,0.0077
2422.00,0.0077
2421.00,0.0077
2420.00,0.0076
2419.00,0.0076
2418.00,0.0076
2417.00,0.0076
2416.00,0.0076
2415.00,0.0076
2414.00,0.0076
2413.00,0.0076
2412.00,0.0076
2411.00,0.0077
2410.00,0.0077
2409.00,0.0077
2408.00,0.0077
2407.00,0.0076
2406.00,0.0075
2405.00,0.0075
2404.00,0.0075
2403.00,0.0075
2402.00,0.0075
2401.00,0.0076
2400.00,0.0076
2399.00,0.0076
2398.00,0.0076
2397.00,0.0075
2396.00,0.0075
2395.00,0.0075
2394.00,0.0075
2393.00,0.0076
2392.00,0.0076
2391.00,0.0076
2390.00,0.0076
2389.00,0.0076
2388.00,0.0076
2387.00,0.0076
2386.00,0.0075
2385.00,0.0075
2384.00,0.0074
2383.00,0.0074
2382.00,0.0073
2381.00,0.0071
2380.00,0.0070
2379.00,0.0070
2378.00,0.0070
2377.00,0.0070
2376.00,0.0070
2375.00,0.0071
2374.00,0.0072
2373.00,0.0072
2372.00,0.0073
2371.00,0.0073
2370.00,0.0073
2369.00,0.0072
2368.00,0.0071
2367.00,0.0071
2366.00,0.0072
2365.00,0.0073
2364.00,0.0073
2363.00,0.0074
2362.00,0.0075
2361.00,0.0075
2360.00,0.0076
2359.00,0.0076
2358.00,0.0076
2357.00,0.0076
2356.00,0.0077
2355.00,0.0077
2354.00,0.0078
2353.00,0.0078
2352.00,0.0078
2351.00,0.0077
2350.00,0.0078
2349.00,0.0079
2348.00,0.0081
2347.00,0.0083
2346.00,0.0085
2345.00,0.0085
2344.00,0.0084
2343.00,0.0084
2342.00,0.0085
2341.00,0.0086
2340.00,0.0086
2339.00,0.0087
2338.00,0.0088
2337.00,0.0088
2336.00,0.0088
2335.00,0.0089
2334.00,0.0089
2333.00,0.0089
2332.00,0.0089
2331.00,0.0088
2330.00,0.0087
2329.00,0.0088
2328.00,0.0091
2327.00,0.0096
2326.00,0.0103
2325.00,0.0109
2324.00,0.0113
2323.00,0.0112
2322.00,0.0110
2321.00,0.0107
2320.00,0.0104
2319.00,0.0103
2318.00,0.0102
2317.00,0.0101
2316.00,0.0101
2315.00,0.0100
2314.00,0.0099
2313.00,0.0098
2312.00,0.0097
2311.00,0.0096
2310.00,0.0096
2309.00,0.0096
2308.00,0.0096
2307.00,0.0097
2306.00,0.0098
2305.00,0.0098
2304.00,0.0099
2303.00,0.0099
2302.00,0.0100
2301.00,0.0100
2300.00,0.0101
2299.00,0.0101
2298.00,0.0102
2297.00,0.0103
2296.00,0.0104
2295.00,0.0105
2294.00,0.0106
2293.00,0.0108
2292.00,0.0110
2291.00,0.0112
2290.00,0.0113
2289.00,0.0115
2288.00,0.0116
2287.00,0.0117
2286.00,0.0118
2285.00,0.0118
2284.00,0.0117
2283.00,0.0116
2282.00,0.0115
2281.00,0.0114
2280.00,0.0114
2279.00,0.0113
2278.00,0.0112
2277.00,0.0111
2276.00,0.0109
2275.00,0.0109
2274.00,0.0108
2273.00,0.0108
2272.00,0.0108
2271.00,0.0108
2270.00,0.0108
2269.00,0.0109
2268.00,0.0109
2267.00,0.0108
2266.00,0.0107
2265.00,0.0105
2264.00,0.0104
2263.00,0.0104
2262.00,0.0105
2261.00,0.0105
2260.00,0.0106
2259.00,0.0106
2258.00,0.0107
2257.00,0.0107
2256.00,0.0107
2255.00,0.0105
2254.00,0.0104
2253.00,0.0103
2252.00,0.0102
2251.00,0.0102
2250.00,0.0102
2249.00,0.0103
2248.00,0.0104
2247.00,0.0104
2246.00,0.0103
2245.00,0.0102
2244.00,0.0102
2243.00,0.0103
2242.00,0.0105
2241.00,0.0106
2240.00,0.0106
2239.00,0.0105
2238.00,0.0104
2237.00,0.0104
2236.00,0.0105
2235.00,0.0107
2234.00,0.0108
2233.00,0.0107
2232.00,0.0105
2231.00,0.0103
2230.00,0.0102
2229.00,0.0101
2228.00,0.0101
2227.00,0.0101
2226.00,0.0102
2225.00,0.0103
2224.00,0.0104
2223.00,0.0104
2222.00,0.0104
2221.00,0.0104
2220.00,0.0104
2219.00,0.0105
2218.00,0.0105
2217.00,0.0104
2216.00,0.0103
2215.00,0.0102
2214.00,0.0103
2213.00,0.0104
2212.00,0.0106
2211.00,0.0106
2210.00,0.0106
2209.00,0.0106
2208.00,0.0107
2207.00,0.0107
2206.00,0.0107
2205.00,0.0106
2204.00,0.0105
2203.00,0.0105
2202.00,0.0106
2201.00,0.0106
2200.00,0.0105
2199.00,0.0104
2198.00,0.0104
2197.00,0.0104
2196.00,0.0106
2195.00,0.0107
2194.00,0.0108
2193.00,0.0108
2192.00,0.0108
2191.00,0.0107
2190.00,0.0106
2189.00,0.0107
2188.00,0.0109
2187.00,0.0111
2186.00,0.0111
2185.00,0.0110
2184.00,0.0110
2183.00,0.0108
2182.00,0.0105
2181.00,0.0101
2180.00,0.0099
2179.00,0.0099
2178.00,0.0099
2177.00,0.0100
2176.00,0.0099
2175.00,0.0099
2174.00,0.0100
2173.00,0.0102
2172.00,0.0104
2171.00,0.0107
2170.00,0.0110
2169.00,0.0114
2168.00,0.0119
2167.00,0.0123
2166.00,0.0125
2165.00,0.0126
2164.00,0.0124
2163.00,0.0122
2162.00,0.0118
2161.00,0.0110
2160.00,0.0093
2159.00,0.0071
2158.00,0.0050
2157.00,0.0038
2156.00,0.0037
2155.00,0.0042
2154.00,0.0049
2153.00,0.0056
2152.00,0.0062
2151.00,0.0068
2150.00,0.0072
2149.00,0.0074
2148.00,0.0074
2147.00,0.0073
2146.00,0.0072
2145.00,0.0072
2144.00,0.0072
2143.00,0.0073
2142.00,0.0075
2141.00,0.0078
2140.00,0.0079
2139.00,0.0080
2138.00,0.0079
2137.00,0.0078
2136.00,0.0076
2135.00,0.0072
2134.00,0.0070
2133.00,0.0072
2132.00,0.0076
2131.00,0.0082
2130.00,0.0087
2129.00,0.0091
2128.00,0.0094
2127.00,0.0097
2126.00,0.0099
2125.00,0.0101
2124.00,0.0102
2123.00,0.0104
2122.00,0.0105
2121.00,0.0107
2120.00,0.0109
2119.00,0.0112
2118.00,0.0114
2117.00,0.0117
2116.00,0.0119
2115.00,0.0122
2114.00,0.0124
2113.00,0.0124
2112.00,0.0123
2111.00,0.0122
2110.00,0.0121
2109.00,0.0121
2108.00,0.0123
2107.00,0.0124
2106.00,0.0125
2105.00,0.0126
2104.00,0.0126
2103.00,0.0125
2102.00,0.0125
2101.00,0.0124
2100.00,0.0123
2099.00,0.0122
2098.00,0.0120
2097.00,0.0118
2096.00,0.0115
2095.00,0.0112
2094.00,0.0111
2093.00,0.0111
2092.00,0.0113
2091.00,0.0115
2090.00,0.0116
2089.00,0.0117
2088.00,0.0118
2087.00,0.0118
2086.00,0.0117
2085.00,0.0117
2084.00,0.0118
2083.00,0.0118
2082.00,0.0119
2081.00,0.0119
2080.00,0.0120
2079.00,0.0120
2078.00,0.0121
2077.00,0.0121
2076.00,0.0120
2075.00,0.0119
2074.00,0.0118
2073.00,0.0118
2072.00,0.0118
2071.00,0.0118
2070.00,0.0116
2069.00,0.0115
2068.00,0.0114
2067.00,0.0113
2066.00,0.0113
2065.00,0.0112
2064.00,0.0111
2063.00,0.0110
2062.00,0.0108
2061.00,0.0107
2060.00,0.0107
2059.00,0.0109
2058.00,0.0111
2057.00,0.0114
2056.00,0.0115
2055.00,0.0116
2054.00,0.0118
2053.00,0.0122
2052.00,0.0127
2051.00,0.0131
2050.00,0.0129
2049.00,0.0123
2048.00,0.0117
2047.00,0.0111
2046.00,0.0108
2045.00,0.0106
2044.00,0.0105
2043.00,0.0104
2042.00,0.0101
2041.00,0.0098
2040.00,0.0097
2039.00,0.0098
2038.00,0.0100
2037.00,0.0101
2036.00,0.0101
2035.00,0.0099
2034.00,0.0097
2033.00,0.0095
2032.00,0.0094
2031.00,0.0094
2030.00,0.0092
2029.00,0.0090
2028.00,0.0088
2027.00,0.0087
2026.00,0.0086
2025.00,0.0087
2024.00,0.0088
2023.00,0.0088
2022.00,0.0087
2021.00,0.0086
2020.00,0.0084
2019.00,0.0083
2018.00,0.0081
2017.00,0.0081
2016.00,0.0080
2015.00,0.0079
2014.00,0.0078
2013.00,0.0080
2012.00,0.0083
2011.00,0.0085
2010.00,0.0086
2009.00,0.0084
2008.00,0.0080
2007.00,0.0075
2006.00,0.0072
2005.00,0.0073
2004.00,0.0075
2003.00,0.0077
2002.00,0.0077
2001.00,0.0078
2000.00,0.0080
1999.00,0.0084
1998.00,0.0088
1997.00,0.0092
1996.00,0.0095
1995.00,0.0098
1994.00,0.0099
1993.00,0.0100
1992.00,0.0100
1991.00,0.0099
1990.00,0.0099
1989.00,0.0099
1988.00,0.0099
1987.00,0.0099
1986.00,0.0098
1985.00,0.0099
1984.00,0.0101
1983.00,0.0105
1982.00,0.0110
1981.00,0.0115
1980.00,0.0116
1979.00,0.0110
1978.00,0.0097
1977.00,0.0083
1976.00,0.0074
1975.00,0.0070
1974.00,0.0069
1973.00,0.0069
1972.00,0.0068
1971.00,0.0068
1970.00,0.0069
1969.00,0.0071
1968.00,0.0074
1967.00,0.0076
1966.00,0.0077
1965.00,0.0079
1964.00,0.0082
1963.00,0.0083
1962.00,0.0081
1961.00,0.0076
1960.00,0.0072
1959.00,0.0069
1958.00,0.0069
1957.00,0.0071
1956.00,0.0074
1955.00,0.0074
1954.00,0.0073
1953.00,0.0073
1952.00,0.0074
1951.00,0.0076
1950.00,0.0077
1949.00,0.0078
1948.00,0.0079
1947.00,0.0079
1946.00,0.0078
1945.00,0.0077
1944.00,0.0076
1943.00,0.0075
1942.00,0.0075
1941.00,0.0075
1940.00,0.0077
1939.00,0.0078
1938.00,0.0079
1937.00,0.0078
1936.00,0.0077
1935.00,0.0076
1934.00,0.0076
1933.00,0.0076
1932.00,0.0077
1931.00,0.0078
1930.00,0.0078
1929.00,0.0078
1928.00,0.0079
1927.00,0.0079
1926.00,0.0079
1925.00,0.0080
1924.00,0.0082
1923.00,0.0083
1922.00,0.0084
1921.00,0.0085
1920.00,0.0085
1919.00,0.0085
1918.00,0.0085
1917.00,0.0084
1916.00,0.0084
1915.00,0.0084
1914.00,0.0085
1913.00,0.0085
1912.00,0.0085
1911.00,0.0086
1910.00,0.0086
1909.00,0.0086
1908.00,0.0086
1907.00,0.0086
1906.00,0.0087
1905.00,0.0087
1904.00,0.0088
1903.00,0.0088
1902.00,0.0087
1901.00,0.0087
1900.00,0.0086
1899.00,0.0085
1898.00,0.0084
1897.00,0.0084
1896.00,0.0084
1895.00,0.0085
1894.00,0.0086
1893.00,0.0086
1892.00,0.0086
1891.00,0.0086
1890.00,0.0086
1889.00,0.0085
1888.00,0.0085
1887.00,0.0085
1886.00,0.0086
1885.00,0.0086
1884.00,0.0087
1883.00,0.0087
1882.00,0.0087
1881.00,0.0087
1880.00,0.0087
1879.00,0.0086
1878.00,0.0086
1877.00,0.0086
1876.00,0.0087
1875.00,0.0087
1874.00,0.0087
1873.00,0.0087
1872.00,0.0087
1871.00,0.0087
1870.00,0.0087
1869.00,0.0087
1868.00,0.0086
1867.00,0.0087
1866.00,0.0087
1865.00,0.0088
1864.00,0.0088
1863.00,0.0087
1862.00,0.0087
1861.00,0.0087
1860.00,0.0087
1859.00,0.0087
1858.00,0.0087
1857.00,0.0088
1856.00,0.0089
1855.00,0.0089
1854.00,0.0089
1853.00,0.0089
1852.00,0.0088
1851.00,0.0088
1850.00,0.0088
1849.00,0.0088
1848.00,0.0089
1847.00,0.0089
1846.00,0.0090
1845.00,0.0090
1844.00,0.0090
1843.00,0.0089
1842.00,0.0089
1841.00,0.0090
1840.00,0.0092
1839.00,0.0092
1838.00,0.0092
1837.00,0.0091
1836.00,0.0092
1835.00,0.0092
1834.00,0.0091
1833.00,0.0091
1832.00,0.0091
1831.00,0.0091
1830.00,0.0091
1829.00,0.0091
1828.00,0.0092
1827.00,0.0094
1826.00,0.0095
1825.00,0.0095
1824.00,0.0095
1823.00,0.0095
1822.00,0.0095
1821.00,0.0096
1820.00,0.0096
1819.00,0.0095
1818.00,0.0094
1817.00,0.0092
1816.00,0.0092
1815.00,0.0093
1814.00,0.0095
1813.00,0.0097
1812.00,0.0099
1811.00,0.0100
1810.00,0.0100
1809.00,0.0101
1808.00,0.0102
1807.00,0.0102
1806.00,0.0102
1805.00,0.0103
1804.00,0.0104
1803.00,0.0104
1802.00,0.0105
1801.00,0.0105
1800.00,0.0106
1799.00,0.0107
1798.00,0.0108
1797.00,0.0109
1796.00,0.0110
1795.00,0.0111
1794.00,0.0112
1793.00,0.0113
1792.00,0.0112
1791.00,0.0112
1790.00,0.0112
1789.00,0.0113
1788.00,0.0114
1787.00,0.0115
1786.00,0.0115
1785.00,0.0116
1784.00,0.0116
1783.00,0.0117
1782.00,0.0117
1781.00,0.0117
1780.00,0.0118
1779.00,0.0118
1778.00,0.0119
1777.00,0.0120
1776.00,0.0120
1775.00,0.0121
1774.00,0.0122
1773.00,0.0123
1772.00,0.0123
1771.00,0.0123
1770.00,0.0125
1769.00,0.0127
1768.00,0.0129
1767.00,0.0129
1766.00,0.0129
1765.00,0.0129
1764.00,0.0131
1763.00,0.0132
1762.00,0.0133
1761.00,0.0134
1760.00,0.0135
1759.00,0.0136
1758.00,0.0138
1757.00,0.0139
1756.00,0.0140
1755.00,0.0141
1754.00,0.0143
1753.00,0.0146
1752.00,0.0150
1751.00,0.0152
1750.00,0.0153
1749.00,0.0154
1748.00,0.0156
1747.00,0.0158
1746.00,0.0159
1745.00,0.0160
1744.00,0.0161
1743.00,0.0163
1742.00,0.0164
1741.00,0.0167
1740.00,0.0170
1739.00,0.0171
1738.00,0.0171
1737.00,0.0172
1736.00,0.0176
1735.00,0.0180
1734.00,0.0182
1733.00,0.0182
1732.00,0.0183
1731.00,0.0185
1730.00,0.0186
1729.00,0.0188
1728.00,0.0190
1727.00,0.0192
1726.00,0.0194
1725.00,0.0197
1724.00,0.0200
1723.00,0.0202
1722.00,0.0204
1721.00,0.0206
1720.00,0.0209
1719.00,0.0213
1718.00,0.0217
1717.00,0.0223
1716.00,0.0228
1715.00,0.0232
1714.00,0.0235
1713.00,0.0238
1712.00,0.0241
1711.00,0.0244
1710.00,0.0247
1709.00,0.0250
1708.00,0.0254
1707.00,0.0258
1706.00,0.0263
1705.00,0.0267
1704.00,0.0272
1703.00,0.0276
1702.00,0.0283
1701.00,0.0291
1700.00,0.0299
1699.00,0.0306
1698.00,0.0313
1697.00,0.0322
1696.00,0.0331
1695.00,0.0339
1694.00,0.0346
1693.00,0.0352
1692.00,0.0360
1691.00,0.0368
1690.00,0.0377
1689.00,0.0385
1688.00,0.0394
1687.00,0.0401
1686.00,0.0410
1685.00,0.0422
1684.00,0.0436
1683.00,0.0451
1682.00,0.0462
1681.00,0.0473
1680.00,0.0484
1679.00,0.0494
1678.00,0.0503
1677.00,0.0514
1676.00,0.0527
1675.00,0.0542
1674.00,0.0555
1673.00,0.0567
1672.00,0.0578
1671.00,0.0592
1670.00,0.0607
1669.00,0.0623
1668.00,0.0638
1667.00,0.0650
1666.00,0.0660
1665.00,0.0670
1664.00,0.0682
1663.00,0.0697
1662.00,0.0712
1661.00,0.0727
1660.00,0.0740
1659.00,0.0751
1658.00,0.0760
1657.00,0.0766
1656.00,0.0772
1655.00,0.0779
1654.00,0.0792
1653.00,0.0814
1652.00,0.0836
1651.00,0.0847
1650.00,0.0852
1649.00,0.0857
1648.00,0.0864
1647.00,0.0875
1646.00,0.0887
1645.00,0.0896
1644.00,0.0903
1643.00,0.0907
1642.00,0.0910
1641.00,0.0912
1640.00,0.0913
1639.00,0.0914
1638.00,0.0914
1637.00,0.0914
1636.00,0.0916
1635.00,0.0918
1634.00,0.0918
1633.00,0.0914
1632.00,0.0910
1631.00,0.0905
1630.00,0.0898
1629.00,0.0890
1628.00,0.0881
1627.00,0.0873
1626.00,0.0865
1625.00,0.0855
1624.00,0.0844
1623.00,0.0831
1622.00,0.0818
1621.00,0.0805
1620.00,0.0793
1619.00,0.0781
1618.00,0.0767
1617.00,0.0750
1616.00,0.0733
1615.00,0.0719
1614.00,0.0705
1613.00,0.0692
1612.00,0.0678
1611.00,0.0664
1610.00,0.0650
1609.00,0.0635
1608.00,0.0621
1607.00,0.0608
1606.00,0.0596
1605.00,0.0583
1604.00,0.0571
1603.00,0.0559
1602.00,0.0547
1601.00,0.0536
1600.00,0.0525
1599.00,0.0516
1598.00,0.0506
1597.00,0.0497
1596.00,0.0488
1595.00,0.0479
1594.00,0.0470
1593.00,0.0462
1592.00,0.0454
1591.00,0.0448
1590.00,0.0441
1589.00,0.0434
1588.00,0.0427
1587.00,0.0421
1586.00,0.0416
1585.00,0.0411
1584.00,0.0406
1583.00,0.0402
1582.00,0.0398
1581.00,0.0393
1580.00,0.0389
1579.00,0.0385
1578.00,0.0383
1577.00,0.0380
1576.00,0.0376
1575.00,0.0372
1574.00,0.0368
1573.00,0.0365
1572.00,0.0363
1571.00,0.0360
1570.00,0.0357
1569.00,0.0354
1568.00,0.0352
1567.00,0.0350
1566.00,0.0349
1565.00,0.0347
1564.00,0.0343
1563.00,0.0340
1562.00,0.0337
1561.00,0.0335
1560.00,0.0332
1559.00,0.0330
1558.00,0.0331
1557.00,0.0331
1556.00,0.0331
1555.00,0.0331
1554.00,0.0331
1553.00,0.0329
1552.00,0.0327
1551.00,0.0325
1550.00,0.0323
1549.00,0.0322
1548.00,0.0321
1547.00,0.0321
1546.00,0.0321
1545.00,0.0319
1544.00,0.0317
1543.00,0.0316
1542.00,0.0316
1541.00,0.0316
1540.00,0.0313
1539.00,0.0308
1538.00,0.0305
1537.00,0.0302
1536.00,0.0301
1535.00,0.0300
1534.00,0.0299
1533.00,0.0295
1532.00,0.0293
1531.00,0.0291
1530.00,0.0290
1529.00,0.0289
1528.00,0.0288
1527.00,0.0286
1526.00,0.0285
1525.00,0.0284
1524.00,0.0282
1523.00,0.0281
1522.00,0.0280
1521.00,0.0278
1520.00,0.0276
1519.00,0.0274
1518.00,0.0273
1517.00,0.0272
1516.00,0.0271
1515.00,0.0269
1514.00,0.0269
1513.00,0.0269
1512.00,0.0268
1511.00,0.0266
1510.00,0.0265
1509.00,0.0264
1508.00,0.0263
1507.00,0.0261
1506.00,0.0261
1505.00,0.0260
1504.00,0.0259
1503.00,0.0259
1502.00,0.0259
1501.00,0.0259
1500.00,0.0258
1499.00,0.0257
1498.00,0.0257
1497.00,0.0258
1496.00,0.0258
1495.00,0.0257
1494.00,0.0257
1493.00,0.0259
1492.00,0.0261
1491.00,0.0263
1490.00,0.0264
1489.00,0.0265
1488.00,0.0266
1487.00,0.0268
1486.00,0.0270
1485.00,0.0272
1484.00,0.0275
1483.00,0.0277
1482.00,0.0280
1481.00,0.0283
1480.00,0.0286
1479.00,0.0289
1478.00,0.0292
1477.00,0.0295
1476.00,0.0298
1475.00,0.0301
1474.00,0.0305
1473.00,0.0309
1472.00,0.0312
1471.00,0.0313
1470.00,0.0314
1469.00,0.0316
1468.00,0.0317
1467.00,0.0317
1466.00,0.0318
1465.00,0.0319
1464.00,0.0320
1463.00,0.0322
1462.00,0.0323
1461.00,0.0323
1460.00,0.0324
1459.00,0.0324
1458.00,0.0326
1457.00,0.0331
1456.00,0.0334
1455.00,0.0335
1454.00,0.0335
1453.00,0.0335
1452.00,0.0335
1451.00,0.0335
1450.00,0.0335
1449.00,0.0335
1448.00,0.0336
1447.00,0.0336
1446.00,0.0336
1445.00,0.0337
1444.00,0.0338
1443.00,0.0339
1442.00,0.0340
1441.00,0.0342
1440.00,0.0343
1439.00,0.0344
1438.00,0.0345
1437.00,0.0347
1436.00,0.0350
1435.00,0.0351
1434.00,0.0352
1433.00,0.0353
1432.00,0.0354
1431.00,0.0355
1430.00,0.0355
1429.00,0.0356
1428.00,0.0357
1427.00,0.0357
1426.00,0.0358
1425.00,0.0359
1424.00,0.0359
1423.00,0.0360
1422.00,0.0360
1421.00,0.0360
1420.00,0.0361
1419.00,0.0362
1418.00,0.0362
1417.00,0.0363
1416.00,0.0363
1415.00,0.0363
1414.00,0.0362
1413.00,0.0362
1412.00,0.0362
1411.00,0.0362
1410.00,0.0362
1409.00,0.0362
1408.00,0.0363
1407.00,0.0363
1406.00,0.0363
1405.00,0.0363
1404.00,0.0364
1403.00,0.0364
1402.00,0.0364
1401.00,0.0363
1400.00,0.0362
1399.00,0.0361
1398.00,0.0360
1397.00,0.0360
1396.00,0.0360
1395.00,0.0360
1394.00,0.0360
1393.00,0.0361
1392.00,0.0363
1391.00,0.0365
1390.00,0.0367
1389.00,0.0371
1388.00,0.0377
1387.00,0.0384
1386.00,0.0392
1385.00,0.0399
1384.00,0.0406
1383.00,0.0413
1382.00,0.0419
1381.00,0.0425
1380.00,0.0430
1379.00,0.0434
1378.00,0.0437
1377.00,0.0439
1376.00,0.0440
1375.00,0.0440
1374.00,0.0440
1373.00,0.0440
1372.00,0.0439
1371.00,0.0438
1370.00,0.0436
1369.00,0.0434
1368.00,0.0431
1367.00,0.0428
1366.00,0.0426
1365.00,0.0424
1364.00,0.0422
1363.00,0.0421
1362.00,0.0420
1361.00,0.0420
1360.00,0.0420
1359.00,0.0419
1358.00,0.0419
1357.00,0.0419
1356.00,0.0419
1355.00,0.0418
1354.00,0.0417
1353.00,0.0415
1352.00,0.0413
1351.00,0.0410
1350.00,0.0407
1349.00,0.0403
1348.00,0.0399
1347.00,0.0395
1346.00,0.0391
1345.00,0.0388
1344.00,0.0385
1343.00,0.0382
1342.00,0.0380
1341.00,0.0379
1340.00,0.0378
1339.00,0.0377
1338.00,0.0377
1337.00,0.0377
1336.00,0.0377
1335.00,0.0377
1334.00,0.0376
1333.00,0.0375
1332.00,0.0375
1331.00,0.0375
1330.00,0.0375
1329.00,0.0376
1328.00,0.0377
1327.00,0.0378
1326.00,0.0379
1325.00,0.0380
1324.00,0.0381
1323.00,0.0382
1322.00,0.0383
1321.00,0.0384
1320.00,0.0385
1319.00,0.0387
1318.00,0.0388
1317.00,0.0389
1316.00,0.0390
1315.00,0.0391
1314.00,0.0393
1313.00,0.0394
1312.00,0.0396
1311.00,0.0397
1310.00,0.0398
1309.00,0.0400
1308.00,0.0402
1307.00,0.0404
1306.00,0.0406
1305.00,0.0409
1304.00,0.0413
1303.00,0.0416
1302.00,0.0420
1301.00,0.0425
1300.00,0.0430
1299.00,0.0436
1298.00,0.0442
1297.00,0.0449
1296.00,0.0457
1295.00,0.0467
1294.00,0.0476
1293.00,0.0487
1292.00,0.0498
1291.00,0.0510
1290.00,0.0521
1289.00,0.0534
1288.00,0.0547
1287.00,0.0560
1286.00,0.0574
1285.00,0.0588
1284.00,0.0603
1283.00,0.0619
1282.00,0.0636
1281.00,0.0653
1280.00,0.0671
1279.00,0.0690
1278.00,0.0708
1277.00,0.0727
1276.00,0.0747
1275.00,0.0767
1274.00,0.0787
1273.00,0.0808
1272.00,0.0829
1271.00,0.0850
1270.00,0.0871
1269.00,0.0891
1268.00,0.0910
1267.00,0.0929
1266.00,0.0946
1265.00,0.0963
1264.00,0.0979
1263.00,0.0994
1262.00,0.1008
1261.00,0.1020
1260.00,0.1032
1259.00,0.1043
1258.00,0.1052
1257.00,0.1060
1256.00,0.1068
1255.00,0.1074
1254.00,0.1080
1253.00,0.1086
1252.00,0.1091
1251.00,0.1096
1250.00,0.1100
1249.00,0.1104
1248.00,0.1108
1247.00,0.1112
1246.00,0.1116
1245.00,0.1120
1244.00,0.1125
1243.00,0.1130
1242.00,0.1136
1241.00,0.1143
1240.00,0.1150
1239.00,0.1157
1238.00,0.1164
1237.00,0.1171
1236.00,0.1178
1235.00,0.1184
1234.00,0.1190
1233.00,0.1195
1232.00,0.1199
1231.00,0.1204
1230.00,0.1207
1229.00,0.1209
1228.00,0.1210
1227.00,0.1210
1226.00,0.1209
1225.00,0.1207
1224.00,0.1205
1223.00,0.1202
1222.00,0.1198
1221.00,0.1193
1220.00,0.1188
1219.00,0.1181
1218.00,0.1172
1217.00,0.1163
1216.00,0.1153
1215.00,0.1141
1214.00,0.1128
1213.00,0.1113
1212.00,0.1098
1211.00,0.1082
1210.00,0.1065
1209.00,0.1047
1208.00,0.1030
1207.00,0.1012
1206.00,0.0993
1205.00,0.0975
1204.00,0.0958
1203.00,0.0941
1202.00,0.0926
1201.00,0.0912
1200.00,0.0901
1199.00,0.0893
1198.00,0.0887
1197.00,0.0885
1196.00,0.0884
1195.00,0.0885
1194.00,0.0887
1193.00,0.0888
1192.00,0.0889
1191.00,0.0887
1190.00,0.0882
1189.00,0.0875
1188.00,0.0867
1187.00,0.0857
1186.00,0.0848
1185.00,0.0840
1184.00,0.0833
1183.00,0.0828
1182.00,0.0825
1181.00,0.0824
1180.00,0.0826
1179.00,0.0830
1178.00,0.0835
1177.00,0.0842
1176.00,0.0851
1175.00,0.0861
1174.00,0.0873
1173.00,0.0887
1172.00,0.0903
1171.00,0.0921
1170.00,0.0941
1169.00,0.0962
1168.00,0.0984
1167.00,0.1007
1166.00,0.1030
1165.00,0.1053
1164.00,0.1076
1163.00,0.1096
1162.00,0.1115
1161.00,0.1130
1160.00,0.1142
1159.00,0.1150
1158.00,0.1154
1157.00,0.1155
1156.00,0.1154
1155.00,0.1149
1154.00,0.1142
1153.00,0.1132
1152.00,0.1120
1151.00,0.1107
1150.00,0.1092
1149.00,0.1076
1148.00,0.1059
1147.00,0.1042
1146.00,0.1025
1145.00,0.1009
1144.00,0.0996
1143.00,0.0984
1142.00,0.0975
1141.00,0.0970
1140.00,0.0968
1139.00,0.0971
1138.00,0.0979
1137.00,0.0992
1136.00,0.1011
1135.00,0.1035
1134.00,0.1062
1133.00,0.1091
1132.00,0.1120
1131.00,0.1149
1130.00,0.1174
1129.00,0.1196
1128.00,0.1214
1127.00,0.1226
1126.00,0.1232
1125.00,0.1233
1124.00,0.1230
1123.00,0.1224
1122.00,0.1217
1121.00,0.1209
1120.00,0.1202
1119.00,0.1194
1118.00,0.1188
1117.00,0.1182
1116.00,0.1178
1115.00,0.1173
1114.00,0.1169
1113.00,0.1165
1112.00,0.1162
1111.00,0.1158
1110.00,0.1155
1109.00,0.1152
1108.00,0.1152
1107.00,0.1154
1106.00,0.1158
1105.00,0.1164
1104.00,0.1173
1103.00,0.1185
1102.00,0.1200
1101.00,0.1217
1100.00,0.1237
1099.00,0.1256
1098.00,0.1276
1097.00,0.1295
1096.00,0.1312
1095.00,0.1327
1094.00,0.1340
1093.00,0.1351
1092.00,0.1361
1091.00,0.1372
1090.00,0.1383
1089.00,0.1396
1088.00,0.1411
1087.00,0.1428
1086.00,0.1446
1085.00,0.1466
1084.00,0.1489
1083.00,0.1514
1082.00,0.1541
1081.00,0.1571
1080.00,0.1603
1079.00,0.1638
1078.00,0.1674
1077.00,0.1712
1076.00,0.1749
1075.00,0.1786
1074.00,0.1822
1073.00,0.1856
1072.00,0.1890
1071.00,0.1921
1070.00,0.1949
1069.00,0.1973
1068.00,0.1992
1067.00,0.2002
1066.00,0.2003
1065.00,0.1994
1064.00,0.1977
1063.00,0.1951
1062.00,0.1922
1061.00,0.1892
1060.00,0.1864
1059.00,0.1841
1058.00,0.1823
1057.00,0.1812
1056.00,0.1806
1055.00,0.1805
1054.00,0.1807
1053.00,0.1813
1052.00,0.1822
1051.00,0.1832
1050.00,0.1843
1049.00,0.1858
1048.00,0.1876
1047.00,0.1899
1046.00,0.1925
1045.00,0.1952
1044.00,0.1978
1043.00,0.2000
1042.00,0.2017
1041.00,0.2027
1040.00,0.2031
1039.00,0.2028
1038.00,0.2020
1037.00,0.2010
1036.00,0.2000
1035.00,0.1992
1034.00,0.1986
1033.00,0.1985
1032.00,0.1988
1031.00,0.1994
1030.00,0.1998
1029.00,0.1999
1028.00,0.1993
1027.00,0.1977
1026.00,0.1952
1025.00,0.1919
1024.00,0.1878
1023.00,0.1831
1022.00,0.1780
1021.00,0.1725
1020.00,0.1670
1019.00,0.1614
1018.00,0.1560
1017.00,0.1510
1016.00,0.1466
1015.00,0.1428
1014.00,0.1396
1013.00,0.1372
1012.00,0.1354
1011.00,0.1343
1010.00,0.1338
1009.00,0.1339
1008.00,0.1345
1007.00,0.1353
1006.00,0.1361
1005.00,0.1366
1004.00,0.1366
1003.00,0.1358
1002.00,0.1340
1001.00,0.1312
1000.00,0.1278
999.00,0.1239
998.00,0.1199
997.00,0.1162
996.00,0.1129
995.00,0.1102
994.00,0.1080
993.00,0.1063
992.00,0.1050
991.00,0.1038
990.00,0.1027
989.00,0.1015
988.00,0.1000
987.00,0.0984
986.00,0.0966
985.00,0.0948
984.00,0.0932
983.00,0.0917
982.00,0.0905
981.00,0.0897
980.00,0.0891
979.00,0.0888
978.00,0.0888
977.00,0.0891
976.00,0.0896
975.00,0.0904
974.00,0.0914
973.00,0.0925
972.00,0.0937
971.00,0.0946
970.00,0.0950
969.00,0.0948
968.00,0.0937
967.00,0.0918
966.00,0.0892
965.00,0.0862
964.00,0.0830
963.00,0.0801
962.00,0.0775
961.00,0.0755
960.00,0.0740
959.00,0.0729
958.00,0.0721
957.00,0.0718
956.00,0.0717
955.00,0.0719
954.00,0.0724
953.00,0.0731
952.00,0.0741
951.00,0.0752
950.00,0.0764
949.00,0.0778
948.00,0.0793
947.00,0.0809
946.00,0.0827
945.00,0.0848
944.00,0.0871
943.00,0.0899
942.00,0.0931
941.00,0.0967
940.00,0.1010
939.00,0.1057
938.00,0.1108
937.00,0.1161
936.00,0.1216
935.00,0.1268
934.00,0.1316
933.00,0.1358
932.00,0.1396
931.00,0.1429
930.00,0.1459
929.00,0.1486
928.00,0.1509
927.00,0.1528
926.00,0.1543
925.00,0.1554
924.00,0.1561
923.00,0.1564
922.00,0.1566
921.00,0.1567
920.00,0.1567
919.00,0.1566
918.00,0.1562
917.00,0.1556
916.00,0.1547
915.00,0.1534
914.00,0.1519
913.00,0.1501
912.00,0.1482
911.00,0.1462
910.00,0.1440
909.00,0.1419
908.00,0.1398
907.00,0.1377
906.00,0.1358
905.00,0.1340
904.00,0.1325
903.00,0.1311
902.00,0.1300
901.00,0.1290
900.00,0.1281
899.00,0.1273
898.00,0.1266
897.00,0.1261
896.00,0.1258
895.00,0.1256
894.00,0.1255
893.00,0.1254
892.00,0.1253
891.00,0.1251
890.00,0.1247
889.00,0.1240
888.00,0.1229
887.00,0.1214
886.00,0.1194
885.00,0.1169
884.00,0.1142
883.00,0.1113
882.00,0.1084
881.00,0.1059
880.00,0.1039
879.00,0.1025
878.00,0.1019
877.00,0.1017
876.00,0.1018
875.00,0.1019
874.00,0.1019
873.00,0.1017
872.00,0.1012
871.00,0.1006
870.00,0.0998
869.00,0.0989
868.00,0.0981
867.00,0.0975
866.00,0.0972
865.00,0.0973
864.00,0.0976
863.00,0.0983
862.00,0.0992
861.00,0.1005
860.00,0.1022
859.00,0.1042
858.00,0.1065
857.00,0.1092
856.00,0.1122
855.00,0.1154
854.00,0.1189
853.00,0.1226
852.00,0.1263
851.00,0.1299
850.00,0.1333
849.00,0.1362
848.00,0.1387
847.00,0.1404
846.00,0.1414
845.00,0.1416
844.00,0.1410
843.00,0.1395
842.00,0.1371
841.00,0.1341
840.00,0.1306
839.00,0.1268
838.00,0.1228
837.00,0.1189
836.00,0.1152
835.00,0.1118
834.00,0.1088
833.00,0.1061
832.00,0.1037
831.00,0.1018
830.00,0.1001
829.00,0.0987
828.00,0.0975
827.00,0.0965
826.00,0.0956
825.00,0.0950
824.00,0.0946
823.00,0.0944
822.00,0.0942
821.00,0.0941
820.00,0.0941
819.00,0.0941
818.00,0.0942
817.00,0.0945
816.00,0.0949
815.00,0.0954
814.00,0.0960
813.00,0.0968
812.00,0.0979
811.00,0.0992
810.00,0.1004
809.00,0.1017
808.00,0.1029
807.00,0.1040
806.00,0.1051
805.00,0.1063
804.00,0.1075
803.00,0.1085
802.00,0.1093
801.00,0.1099
800.00,0.1102
799.00,0.1102
798.00,0.1100
797.00,0.1098
796.00,0.1095
795.00,0.1090
794.00,0.1085
793.00,0.1078
792.00,0.1072
791.00,0.1067
790.00,0.1062
789.00,0.1058
788.00,0.1056
787.00,0.1055
786.00,0.1055
785.00,0.1057
784.00,0.1061
783.00,0.1066
782.00,0.1072
781.00,0.1079
780.00,0.1087
779.00,0.1098
778.00,0.1111
777.00,0.1125
776.00,0.1138
775.00,0.1150
774.00,0.1158
773.00,0.1162
772.00,0.1163
771.00,0.1162
770.00,0.1158
769.00,0.1153
768.00,0.1148
767.00,0.1144
766.00,0.1141
765.00,0.1140
764.00,0.1141
763.00,0.1144
762.00,0.1147
761.00,0.1152
760.00,0.1156
759.00,0.1161
758.00,0.1167
757.00,0.1174
756.00,0.1184
755.00,0.1197
754.00,0.1211
753.00,0.1228
752.00,0.1247
751.00,0.1269
750.00,0.1292
749.00,0.1317
748.00,0.1344
747.00,0.1369
746.00,0.1393
745.00,0.1413
744.00,0.1431
743.00,0.1447
742.00,0.1461
741.00,0.1476
740.00,0.1492
739.00,0.1507
738.00,0.1520
737.00,0.1532
736.00,0.1542
735.00,0.1551
734.00,0.1557
733.00,0.1562
732.00,0.1568
731.00,0.1573
730.00,0.1580
729.00,0.1587
728.00,0.1596
727.00,0.1604
726.00,0.1612
725.00,0.1618
724.00,0.1621
723.00,0.1621
722.00,0.1618
721.00,0.1614
720.00,0.1609
719.00,0.1604
718.00,0.1599
717.00,0.1598
716.00,0.1599
715.00,0.1604
714.00,0.1613
713.00,0.1624
712.00,0.1640
711.00,0.1657
710.00,0.1677
709.00,0.1699
708.00,0.1723
707.00,0.1746
706.00,0.1766
705.00,0.1783
704.00,0.1798
703.00,0.1808
702.00,0.1814
701.00,0.1816
700.00,0.1815
699.00,0.1810
698.00,0.1802
697.00,0.1791
696.00,0.1779
695.00,0.1766
694.00,0.1751
693.00,0.1736
692.00,0.1720
691.00,0.1704
690.00,0.1689
689.00,0.1676
688.00,0.1666
687.00,0.1659
686.00,0.1653
685.00,0.1647
684.00,0.1641
683.00,0.1636
682.00,0.1634
681.00,0.1634
680.00,0.1635
679.00,0.1635
678.00,0.1635
677.00,0.1636
676.00,0.1640
675.00,0.1645
674.00,0.1652
673.00,0.1660
672.00,0.1665
671.00,0.1667
670.00,0.1666
669.00,0.1667
668.00,0.1676
667.00,0.1689
666.00,0.1698
665.00,0.1701
664.00,0.1702
663.00,0.1703
662.00,0.1704
661.00,0.1704
660.00,0.1703
659.00,0.1701
658.00,0.1700
657.00,0.1701
656.00,0.1703
655.00,0.1706
654.00,0.1709
653.00,0.1712
652.00,0.1715
651.00,0.1718
650.00,0.1720
649.00,0.1722
648.00,0.1724
647.00,0.1727
646.00,0.1730
645.00,0.1735
644.00,0.1739
643.00,0.1743
642.00,0.1747
641.00,0.1751
640.00,0.1755
639.00,0.1758
638.00,0.1762
637.00,0.1769
636.00,0.1780
635.00,0.1791
634.00,0.1801
633.00,0.1809
632.00,0.1818
631.00,0.1828
630.00,0.1840
629.00,0.1855
628.00,0.1872
627.00,0.1890
626.00,0.1909
625.00,0.1929
624.00,0.1949
623.00,0.1967
622.00,0.1982
621.00,0.1993
620.00,0.2002
619.00,0.2010
618.00,0.2019
617.00,0.2030
616.00,0.2044
615.00,0.2060
614.00,0.2076
613.00,0.2092
612.00,0.2108
611.00,0.2123
610.00,0.2137
609.00,0.2151
608.00,0.2165
607.00,0.2177
606.00,0.2186
605.00,0.2193
604.00,0.2198
603.00,0.2201
602.00,0.2202
601.00,0.2204
600.00,0.2209
599.00,0.2213
598.00,0.2216
597.00,0.2219
596.00,0.2223
595.00,0.2230
594.00,0.2238
593.00,0.2248
592.00,0.2259
591.00,0.2269
590.00,0.2277
589.00,0.2285
588.00,0.2297
587.00,0.2311
586.00,0.2327
585.00,0.2343
584.00,0.2360
583.00,0.2378
582.00,0.2396
581.00,0.2416
580.00,0.2437
579.00,0.2456
578.00,0.2472
577.00,0.2484
576.00,0.2495
575.00,0.2505
574.00,0.2512
573.00,0.2519
572.00,0.2527
571.00,0.2534
570.00,0.2540
569.00,0.2546
568.00,0.2553
567.00,0.2559
566.00,0.2563
565.00,0.2567
564.00,0.2575
563.00,0.2584
562.00,0.2593
561.00,0.2601
560.00,0.2608
559.00,0.2612
558.00,0.2612
557.00,0.2608
556.00,0.2606
555.00,0.2606
554.00,0.2608
553.00,0.2612
552.00,0.2615
551.00,0.2616
550.00,0.2617
549.00,0.2619
548.00,0.2625
547.00,0.2632
546.00,0.2640
545.00,0.2653
544.00,0.2670
543.00,0.2686
542.00,0.2695
541.00,0.2699
540.00,0.2699
539.00,0.2695
538.00,0.2686
537.00,0.2675
536.00,0.2666
535.00,0.2657
534.00,0.2650
533.00,0.2644
532.00,0.2640
531.00,0.2636
530.00,0.2630
529.00,0.2626
528.00,0.2625
527.00,0.2626
526.00,0.2629
525.00,0.2632
524.00,0.2634
523.00,0.2632
522.00,0.2631
521.00,0.2635
520.00,0.2647
519.00,0.2659
518.00,0.2666
517.00,0.2669
516.00,0.2672
515.00,0.2671
514.00,0.2666
513.00,0.2660
512.00,0.2658
511.00,0.2659
510.00,0.2659
509.00,0.2656
508.00,0.2653
507.00,0.2651
506.00,0.2650
505.00,0.2651
504.00,0.2653
503.00,0.2652
502.00,0.2650
501.00,0.2649
500.00,0.2652
499.00,0.2656
498.00,0.2661
497.00,0.2669
496.00,0.2679
495.00,0.2685
494.00,0.2686
493.00,0.2688
492.00,0.2694
491.00,0.2701
490.00,0.2706
489.00,0.2711
488.00,0.2715
487.00,0.2717
486.00,0.2714
485.00,0.2712
484.00,0.2714
483.00,0.2718
482.00,0.2721
481.00,0.2724
480.00,0.2729
479.00,0.2734
478.00,0.2735
477.00,0.2736
476.00,0.2736
475.00,0.2733
474.00,0.2729
473.00,0.2731
472.00,0.2742
471.00,0.2752
470.00,0.2755
469.00,0.2756
468.00,0.2762
467.00,0.2770
466.00,0.2774
465.00,0.2777
464.00,0.2783
463.00,0.2787
462.00,0.2788
461.00,0.2786
460.00,0.2785
459.00,0.2780
458.00,0.2764
457.00,0.2748
456.00,0.2742
455.00,0.2743
454.00,0.2743
453.00,0.2743
452.00,0.2748
451.00,0.2757
450.00,0.2768
