Created as New Dataset,Sample 007 By Administrator Date Thursday, May 29 2025
cm-1,A
4000.00,0.0089
3999.00,0.0089
3998.00,0.0089
3997.00,0.0089
3996.00,0.0089
3995.00,0.0089
3994.00,0.0089
3993.00,0.0089
3992.00,0.0089
3991.00,0.0089
3990.00,0.0089
3989.00,0.0090
3988.00,0.0090
3987.00,0.0090
3986.00,0.0091
3985.00,0.0091
3984.00,0.0091
3983.00,0.0090
3982.00,0.0090
3981.00,0.0090
3980.00,0.0090
3979.00,0.0091
3978.00,0.0091
3977.00,0.0091
3976.00,0.0091
3975.00,0.0090
3974.00,0.0090
3973.00,0.0090
3972.00,0.0090
3971.00,0.0090
3970.00,0.0091
3969.00,0.0090
3968.00,0.0090
3967.00,0.0091
3966.00,0.0091
3965.00,0.0091
3964.00,0.0092
3963.00,0.0092
3962.00,0.0092
3961.00,0.0091
3960.00,0.0091
3959.00,0.0091
3958.00,0.0091
3957.00,0.0091
3956.00,0.0091
3955.00,0.0091
3954.00,0.0092
3953.00,0.0092
3952.00,0.0093
3951.00,0.0093
3950.00,0.0094
3949.00,0.0094
3948.00,0.0094
3947.00,0.0094
3946.00,0.0094
3945.00,0.0094
3944.00,0.0093
3943.00,0.0093
3942.00,0.0092
3941.00,0.0092
3940.00,0.0092
3939.00,0.0092
3938.00,0.0092
3937.00,0.0092
3936.00,0.0093
3935.00,0.0094
3934.00,0.0095
3933.00,0.0095
3932.00,0.0095
3931.00,0.0094
3930.00,0.0094
3929.00,0.0094
3928.00,0.0094
3927.00,0.0095
3926.00,0.0095
3925.00,0.0094
3924.00,0.0094
3923.00,0.0094
3922.00,0.0095
3921.00,0.0096
3920.00,0.0097
3919.00,0.0097
3918.00,0.0097
3917.00,0.0096
3916.00,0.0095
3915.00,0.0094
3914.00,0.0093
3913.00,0.0092
3912.00,0.0092
3911.00,0.0092
3910.00,0.0092
3909.00,0.0092
3908.00,0.0093
3907.00,0.0095
3906.00,0.0096
3905.00,0.0098
3904.00,0.0101
3903.00,0.0102
3902.00,0.0103
3901.00,0.0103
3900.00,0.0101
3899.00,0.0098
3898.00,0.0096
3897.00,0.0096
3896.00,0.0096
3895.00,0.0096
3894.00,0.0096
3893.00,0.0095
3892.00,0.0095
3891.00,0.0094
3890.00,0.0094
3889.00,0.0096
3888.00,0.0098
3887.00,0.0099
3886.00,0.0100
3885.00,0.0099
3884.00,0.0099
3883.00,0.0099
3882.00,0.0100
3881.00,0.0099
3880.00,0.0098
3879.00,0.0097
3878.00,0.0098
3877.00,0.0099
3876.00,0.0100
3875.00,0.0100
3874.00,0.0100
3873.00,0.0100
3872.00,0.0102
3871.00,0.0103
3870.00,0.0103
3869.00,0.0103
3868.00,0.0102
3867.00,0.0103
3866.00,0.0105
3865.00,0.0104
3864.00,0.0101
3863.00,0.0099
3862.00,0.0098
3861.00,0.0099
3860.00,0.0099
3859.00,0.0099
3858.00,0.0098
3857.00,0.0097
3856.00,0.0097
3855.00,0.0098
3854.00,0.0099
3853.00,0.0099
3852.00,0.0099
3851.00,0.0099
3850.00,0.0099
3849.00,0.0099
3848.00,0.0099
3847.00,0.0099
3846.00,0.0100
3845.00,0.0100
3844.00,0.0101
3843.00,0.0102
3842.00,0.0102
3841.00,0.0103
3840.00,0.0103
3839.00,0.0102
3838.00,0.0101
3837.00,0.0101
3836.00,0.0101
3835.00,0.0101
3834.00,0.0101
3833.00,0.0101
3832.00,0.0100
3831.00,0.0099
3830.00,0.0099
3829.00,0.0099
3828.00,0.0099
3827.00,0.0099
3826.00,0.0099
3825.00,0.0100
3824.00,0.0102
3823.00,0.0105
3822.00,0.0106
3821.00,0.0104
3820.00,0.0103
3819.00,0.0103
3818.00,0.0103
3817.00,0.0102
3816.00,0.0100
3815.00,0.0097
3814.00,0.0096
3813.00,0.0096
3812.00,0.0097
3811.00,0.0097
3810.00,0.0098
3809.00,0.0099
3808.00,0.0100
3807.00,0.0101
3806.00,0.0101
3805.00,0.0102
3804.00,0.0103
3803.00,0.0104
3802.00,0.0103
3801.00,0.0101
3800.00,0.0101
3799.00,0.0101
3798.00,0.0102
3797.00,0.0101
3796.00,0.0100
3795.00,0.0098
3794.00,0.0098
3793.00,0.0097
3792.00,0.0097
3791.00,0.0096
3790.00,0.0095
3789.00,0.0096
3788.00,0.0096
3787.00,0.0097
3786.00,0.0097
3785.00,0.0097
3784.00,0.0098
3783.00,0.0099
3782.00,0.0100
3781.00,0.0101
3780.00,0.0100
3779.00,0.0099
3778.00,0.0099
3777.00,0.0099
3776.00,0.0099
3775.00,0.0099
3774.00,0.0100
3773.00,0.0100
3772.00,0.0102
3771.00,0.0103
3770.00,0.0103
3769.00,0.0104
3768.00,0.0105
3767.00,0.0106
3766.00,0.0106
3765.00,0.0105
3764.00,0.0105
3763.00,0.0105
3762.00,0.0107
3761.00,0.0109
3760.00,0.0109
3759.00,0.0109
3758.00,0.0109
3757.00,0.0110
3756.00,0.0111
3755.00,0.0112
3754.00,0.0114
3753.00,0.0117
3752.00,0.0118
3751.00,0.0119
3750.00,0.0120
3749.00,0.0120
3748.00,0.0120
3747.00,0.0120
3746.00,0.0120
3745.00,0.0119
3744.00,0.0118
3743.00,0.0117
3742.00,0.0117
3741.00,0.0119
3740.00,0.0121
3739.00,0.0123
3738.00,0.0125
3737.00,0.0127
3736.00,0.0127
3735.00,0.0125
3734.00,0.0123
3733.00,0.0122
3732.00,0.0122
3731.00,0.0121
3730.00,0.0120
3729.00,0.0121
3728.00,0.0122
3727.00,0.0122
3726.00,0.0122
3725.00,0.0121
3724.00,0.0121
3723.00,0.0121
3722.00,0.0121
3721.00,0.0120
3720.00,0.0119
3719.00,0.0119
3718.00,0.0119
3717.00,0.0120
3716.00,0.0121
3715.00,0.0123
3714.00,0.0125
3713.00,0.0127
3712.00,0.0128
3711.00,0.0128
3710.00,0.0128
3709.00,0.0128
3708.00,0.0128
3707.00,0.0127
3706.00,0.0127
3705.00,0.0127
3704.00,0.0127
3703.00,0.0127
3702.00,0.0127
3701.00,0.0128
3700.00,0.0130
3699.00,0.0132
3698.00,0.0134
3697.00,0.0135
3696.00,0.0136
3695.00,0.0138
3694.00,0.0140
3693.00,0.0143
3692.00,0.0146
3691.00,0.0147
3690.00,0.0150
3689.00,0.0152
3688.00,0.0155
3687.00,0.0157
3686.00,0.0158
3685.00,0.0159
3684.00,0.0161
3683.00,0.0163
3682.00,0.0166
3681.00,0.0169
3680.00,0.0171
3679.00,0.0173
3678.00,0.0176
3677.00,0.0181
3676.00,0.0186
3675.00,0.0191
3674.00,0.0196
3673.00,0.0201
3672.00,0.0206
3671.00,0.0210
3670.00,0.0212
3669.00,0.0213
3668.00,0.0215
3667.00,0.0218
3666.00,0.0221
3665.00,0.0224
3664.00,0.0227
3663.00,0.0230
3662.00,0.0234
3661.00,0.0239
3660.00,0.0243
3659.00,0.0249
3658.00,0.0255
3657.00,0.0261
3656.00,0.0268
3655.00,0.0274
3654.00,0.0281
3653.00,0.0287
3652.00,0.0294
3651.00,0.0301
3650.00,0.0309
3649.00,0.0317
3648.00,0.0327
3647.00,0.0335
3646.00,0.0341
3645.00,0.0346
3644.00,0.0350
3643.00,0.0353
3642.00,0.0357
3641.00,0.0362
3640.00,0.0368
3639.00,0.0374
3638.00,0.0381
3637.00,0.0387
3636.00,0.0394
3635.00,0.0401
3634.00,0.0408
3633.00,0.0414
3632.00,0.0421
3631.00,0.0430
3630.00,0.0441
3629.00,0.0453
3628.00,0.0465
3627.00,0.0475
3626.00,0.0482
3625.00,0.0488
3624.00,0.0493
3623.00,0.0497
3622.00,0.0502
3621.00,0.0508
3620.00,0.0516
3619.00,0.0525
3618.00,0.0536
3617.00,0.0547
3616.00,0.0556
3615.00,0.0563
3614.00,0.0570
3613.00,0.0577
3612.00,0.0585
3611.00,0.0593
3610.00,0.0602
3609.00,0.0610
3608.00,0.0617
3607.00,0.0624
3606.00,0.0631
3605.00,0.0637
3604.00,0.0643
3603.00,0.0649
3602.00,0.0655
3601.00,0.0661
3600.00,0.0669
3599.00,0.0676
3598.00,0.0684
3597.00,0.0691
3596.00,0.0698
3595.00,0.0707
3594.00,0.0715
3593.00,0.0723
3592.00,0.0731
3591.00,0.0737
3590.00,0.0743
3589.00,0.0750
3588.00,0.0759
3587.00,0.0769
3586.00,0.0778
3585.00,0.0787
3584.00,0.0793
3583.00,0.0799
3582.00,0.0803
3581.00,0.0808
3580.00,0.0814
3579.00,0.0820
3578.00,0.0827
3577.00,0.0833
3576.00,0.0840
3575.00,0.0847
3574.00,0.0854
3573.00,0.0861
3572.00,0.0867
3571.00,0.0873
3570.00,0.0879
3569.00,0.0886
3568.00,0.0895
3567.00,0.0905
3566.00,0.0917
3565.00,0.0927
3564.00,0.0935
3563.00,0.0940
3562.00,0.0944
3561.00,0.0948
3560.00,0.0952
3559.00,0.0957
3558.00,0.0963
3557.00,0.0968
3556.00,0.0974
3555.00,0.0980
3554.00,0.0987
3553.00,0.0994
3552.00,0.1001
3551.00,0.1008
3550.00,0.1014
3549.00,0.1021
3548.00,0.1028
3547.00,0.1035
3546.00,0.1042
3545.00,0.1050
3544.00,0.1057
3543.00,0.1064
3542.00,0.1070
3541.00,0.1075
3540.00,0.1080
3539.00,0.1085
3538.00,0.1090
3537.00,0.1096
3536.00,0.1102
3535.00,0.1108
3534.00,0.1114
3533.00,0.1120
3532.00,0.1126
3531.00,0.1131
3530.00,0.1136
3529.00,0.1143
3528.00,0.1151
3527.00,0.1159
3526.00,0.1167
3525.00,0.1175
3524.00,0.1181
3523.00,0.1187
3522.00,0.1193
3521.00,0.1199
3520.00,0.1204
3519.00,0.1209
3518.00,0.1214
3517.00,0.1219
3516.00,0.1225
3515.00,0.1231
3514.00,0.1237
3513.00,0.1243
3512.00,0.1248
3511.00,0.1254
3510.00,0.1261
3509.00,0.1268
3508.00,0.1275
3507.00,0.1282
3506.00,0.1288
3505.00,0.1294
3504.00,0.1301
3503.00,0.1308
3502.00,0.1315
3501.00,0.1321
3500.00,0.1327
3499.00,0.1332
3498.00,0.1337
3497.00,0.1342
3496.00,0.1347
3495.00,0.1352
3494.00,0.1358
3493.00,0.1363
3492.00,0.1368
3491.00,0.1374
3490.00,0.1380
3489.00,0.1386
3488.00,0.1393
3487.00,0.1399
3486.00,0.1405
3485.00,0.1410
3484.00,0.1415
3483.00,0.1421
3482.00,0.1427
3481.00,0.1434
3480.00,0.1439
3479.00,0.1445
3478.00,0.1449
3477.00,0.1453
3476.00,0.1458
3475.00,0.1463
3474.00,0.1469
3473.00,0.1476
3472.00,0.1482
3471.00,0.1489
3470.00,0.1495
3469.00,0.1501
3468.00,0.1506
3467.00,0.1511
3466.00,0.1516
3465.00,0.1521
3464.00,0.1526
3463.00,0.1531
3462.00,0.1536
3461.00,0.1541
3460.00,0.1546
3459.00,0.1550
3458.00,0.1555
3457.00,0.1559
3456.00,0.1564
3455.00,0.1569
3454.00,0.1573
3453.00,0.1577
3452.00,0.1581
3451.00,0.1585
3450.00,0.1590
3449.00,0.1595
3448.00,0.1600
3447.00,0.1606
3446.00,0.1611
3445.00,0.1616
3444.00,0.1620
3443.00,0.1625
3442.00,0.1629
3441.00,0.1634
3440.00,0.1639
3439.00,0.1644
3438.00,0.1648
3437.00,0.1653
3436.00,0.1656
3435.00,0.1660
3434.00,0.1663
3433.00,0.1666
3432.00,0.1670
3431.00,0.1674
3430.00,0.1678
3429.00,0.1681
3428.00,0.1684
3427.00,0.1687
3426.00,0.1689
3425.00,0.1692
3424.00,0.1695
3423.00,0.1698
3422.00,0.1701
3421.00,0.1705
3420.00,0.1708
3419.00,0.1711
3418.00,0.1714
3417.00,0.1717
3416.00,0.1720
3415.00,0.1723
3414.00,0.1725
3413.00,0.1728
3412.00,0.1730
3411.00,0.1733
3410.00,0.1735
3409.00,0.1736
3408.00,0.1737
3407.00,0.1738
3406.00,0.1740
3405.00,0.1742
3404.00,0.1745
3403.00,0.1747
3402.00,0.1749
3401.00,0.1751
3400.00,0.1751
3399.00,0.1752
3398.00,0.1752
3397.00,0.1753
3396.00,0.1754
3395.00,0.1755
3394.00,0.1756
3393.00,0.1756
3392.00,0.1756
3391.00,0.1756
3390.00,0.1755
3389.00,0.1754
3388.00,0.1753
3387.00,0.1752
3386.00,0.1751
3385.00,0.1751
3384.00,0.1752
3383.00,0.1752
3382.00,0.1752
3381.00,0.1751
3380.00,0.1750
3379.00,0.1749
3378.00,0.1748
3377.00,0.1747
3376.00,0.1746
3375.00,0.1745
3374.00,0.1744
3373.00,0.1743
3372.00,0.1742
3371.00,0.1741
3370.00,0.1739
3369.00,0.1738
3368.00,0.1735
3367.00,0.1732
3366.00,0.1729
3365.00,0.1726
3364.00,0.1723
3363.00,0.1721
3362.00,0.1719
3361.00,0.1716
3360.00,0.1713
3359.00,0.1710
3358.00,0.1707
3357.00,0.1704
3356.00,0.1701
3355.00,0.1698
3354.00,0.1696
3353.00,0.1693
3352.00,0.1690
3351.00,0.1686
3350.00,0.1682
3349.00,0.1679
3348.00,0.1675
3347.00,0.1672
3346.00,0.1669
3345.00,0.1665
3344.00,0.1661
3343.00,0.1657
3342.00,0.1653
3341.00,0.1650
3340.00,0.1646
3339.00,0.1642
3338.00,0.1638
3337.00,0.1634
3336.00,0.1630
3335.00,0.1626
3334.00,0.1622
3333.00,0.1617
3332.00,0.1613
3331.00,0.1608
3330.00,0.1604
3329.00,0.1600
3328.00,0.1596
3327.00,0.1592
3326.00,0.1589
3325.00,0.1585
3324.00,0.1581
3323.00,0.1577
3322.00,0.1573
3321.00,0.1568
3320.00,0.1564
3319.00,0.1559
3318.00,0.1555
3317.00,0.1551
3316.00,0.1547
3315.00,0.1543
3314.00,0.1539
3313.00,0.1536
3312.00,0.1532
3311.00,0.1529
3310.00,0.1526
3309.00,0.1522
3308.00,0.1518
3307.00,0.1514
3306.00,0.1510
3305.00,0.1506
3304.00,0.1502
3303.00,0.1499
3302.00,0.1495
3301.00,0.1491
3300.00,0.1487
3299.00,0.1483
3298.00,0.1479
3297.00,0.1476
3296.00,0.1472
3295.00,0.1469
3294.00,0.1466
3293.00,0.1462
3292.00,0.1458
3291.00,0.1454
3290.00,0.1451
3289.00,0.1447
3288.00,0.1443
3287.00,0.1439
3286.00,0.1435
3285.00,0.1432
3284.00,0.1428
3283.00,0.1424
3282.00,0.1420
3281.00,0.1416
3280.00,0.1412
3279.00,0.1409
3278.00,0.1405
3277.00,0.1402
3276.00,0.1399
3275.00,0.1396
3274.00,0.1393
3273.00,0.1389
3272.00,0.1386
3271.00,0.1382
3270.00,0.1378
3269.00,0.1374
3268.00,0.1370
3267.00,0.1365
3266.00,0.1361
3265.00,0.1357
3264.00,0.1354
3263.00,0.1350
3262.00,0.1346
3261.00,0.1341
3260.00,0.1337
3259.00,0.1333
3258.00,0.1328
3257.00,0.1324
3256.00,0.1320
3255.00,0.1316
3254.00,0.1312
3253.00,0.1308
3252.00,0.1304
3251.00,0.1299
3250.00,0.1294
3249.00,0.1289
3248.00,0.1285
3247.00,0.1280
3246.00,0.1276
3245.00,0.1272
3244.00,0.1267
3243.00,0.1263
3242.00,0.1258
3241.00,0.1253
3240.00,0.1247
3239.00,0.1242
3238.00,0.1237
3237.00,0.1232
3236.00,0.1228
3235.00,0.1224
3234.00,0.1219
3233.00,0.1213
3232.00,0.1207
3231.00,0.1201
3230.00,0.1195
3229.00,0.1189
3228.00,0.1184
3227.00,0.1178
3226.00,0.1173
3225.00,0.1168
3224.00,0.1162
3223.00,0.1156
3222.00,0.1150
3221.00,0.1144
3220.00,0.1138
3219.00,0.1132
3218.00,0.1126
3217.00,0.1120
3216.00,0.1113
3215.00,0.1108
3214.00,0.1102
3213.00,0.1097
3212.00,0.1091
3211.00,0.1085
3210.00,0.1078
3209.00,0.1071
3208.00,0.1065
3207.00,0.1059
3206.00,0.1053
3205.00,0.1047
3204.00,0.1040
3203.00,0.1033
3202.00,0.1026
3201.00,0.1020
3200.00,0.1013
3199.00,0.1007
3198.00,0.1001
3197.00,0.0995
3196.00,0.0989
3195.00,0.0982
3194.00,0.0975
3193.00,0.0969
3192.00,0.0963
3191.00,0.0957
3190.00,0.0950
3189.00,0.0944
3188.00,0.0937
3187.00,0.0931
3186.00,0.0925
3185.00,0.0919
3184.00,0.0913
3183.00,0.0906
3182.00,0.0900
3181.00,0.0894
3180.00,0.0888
3179.00,0.0881
3178.00,0.0875
3177.00,0.0869
3176.00,0.0863
3175.00,0.0857
3174.00,0.0850
3173.00,0.0844
3172.00,0.0838
3171.00,0.0832
3170.00,0.0826
3169.00,0.0820
3168.00,0.0814
3167.00,0.0808
3166.00,0.0802
3165.00,0.0795
3164.00,0.0789
3163.00,0.0784
3162.00,0.0779
3161.00,0.0773
3160.00,0.0768
3159.00,0.0762
3158.00,0.0757
3157.00,0.0751
3156.00,0.0746
3155.00,0.0740
3154.00,0.0735
3153.00,0.0729
3152.00,0.0724
3151.00,0.0718
3150.00,0.0713
3149.00,0.0707
3148.00,0.0701
3147.00,0.0696
3146.00,0.0691
3145.00,0.0686
3144.00,0.0681
3143.00,0.0677
3142.00,0.0672
3141.00,0.0667
3140.00,0.0662
3139.00,0.0657
3138.00,0.0652
3137.00,0.0647
3136.00,0.0641
3135.00,0.0637
3134.00,0.0632
3133.00,0.0627
3132.00,0.0623
3131.00,0.0619
3130.00,0.0614
3129.00,0.0610
3128.00,0.0606
3127.00,0.0601
3126.00,0.0597
3125.00,0.0593
3124.00,0.0588
3123.00,0.0584
3122.00,0.0580
3121.00,0.0576
3120.00,0.0572
3119.00,0.0567
3118.00,0.0563
3117.00,0.0559
3116.00,0.0555
3115.00,0.0551
3114.00,0.0547
3113.00,0.0542
3112.00,0.0538
3111.00,0.0535
3110.00,0.0531
3109.00,0.0528
3108.00,0.0524
3107.00,0.0520
3106.00,0.0517
3105.00,0.0513
3104.00,0.0509
3103.00,0.0506
3102.00,0.0502
3101.00,0.0499
3100.00,0.0496
3099.00,0.0492
3098.00,0.0488
3097.00,0.0484
3096.00,0.0481
3095.00,0.0478
3094.00,0.0475
3093.00,0.0472
3092.00,0.0469
3091.00,0.0465
3090.00,0.0462
3089.00,0.0459
3088.00,0.0456
3087.00,0.0454
3086.00,0.0451
3085.00,0.0447
3084.00,0.0443
3083.00,0.0440
3082.00,0.0436
3081.00,0.0434
3080.00,0.0431
3079.00,0.0429
3078.00,0.0427
3077.00,0.0424
3076.00,0.0421
3075.00,0.0418
3074.00,0.0414
3073.00,0.0411
3072.00,0.0408
3071.00,0.0405
3070.00,0.0403
3069.00,0.0401
3068.00,0.0398
3067.00,0.0396
3066.00,0.0393
3065.00,0.0390
3064.00,0.0388
3063.00,0.0385
3062.00,0.0383
3061.00,0.0381
3060.00,0.0379
3059.00,0.0377
3058.00,0.0374
3057.00,0.0372
3056.00,0.0369
3055.00,0.0367
3054.00,0.0365
3053.00,0.0363
3052.00,0.0361
3051.00,0.0358
3050.00,0.0356
3049.00,0.0354
3048.00,0.0352
3047.00,0.0349
3046.00,0.0347
3045.00,0.0345
3044.00,0.0343
3043.00,0.0341
3042.00,0.0339
3041.00,0.0337
3040.00,0.0335
3039.00,0.0333
3038.00,0.0331
3037.00,0.0330
3036.00,0.0328
3035.00,0.0327
3034.00,0.0325
3033.00,0.0323
3032.00,0.0322
3031.00,0.0320
3030.00,0.0319
3029.00,0.0317
3028.00,0.0316
3027.00,0.0314
3026.00,0.0313
3025.00,0.0311
3024.00,0.0310
3023.00,0.0308
3022.00,0.0307
3021.00,0.0306
3020.00,0.0305
3019.00,0.0304
3018.00,0.0303
3017.00,0.0301
3016.00,0.0300
3015.00,0.0299
3014.00,0.0298
3013.00,0.0297
3012.00,0.0296
3011.00,0.0295
3010.00,0.0294
3009.00,0.0292
3008.00,0.0292
3007.00,0.0291
3006.00,0.0290
3005.00,0.0289
3004.00,0.0288
3003.00,0.0287
3002.00,0.0286
3001.00,0.0286
3000.00,0.0286
2999.00,0.0285
2998.00,0.0285
2997.00,0.0285
2996.00,0.0285
2995.00,0.0284
2994.00,0.0284
2993.00,0.0284
2992.00,0.0284
2991.00,0.0284
2990.00,0.0284
2989.00,0.0284
2988.00,0.0284
2987.00,0.0285
2986.00,0.0285
2985.00,0.0285
2984.00,0.0286
2983.00,0.0286
2982.00,0.0286
2981.00,0.0287
2980.00,0.0287
2979.00,0.0288
2978.00,0.0289
2977.00,0.0290
2976.00,0.0291
2975.00,0.0292
2974.00,0.0292
2973.00,0.0293
2972.00,0.0293
2971.00,0.0294
2970.00,0.0295
2969.00,0.0295
2968.00,0.0295
2967.00,0.0296
2966.00,0.0296
2965.00,0.0296
2964.00,0.0297
2963.00,0.0297
2962.00,0.0298
2961.00,0.0298
2960.00,0.0298
2959.00,0.0298
2958.00,0.0298
2957.00,0.0297
2956.00,0.0297
2955.00,0.0297
2954.00,0.0296
2953.00,0.0296
2952.00,0.0295
2951.00,0.0294
2950.00,0.0294
2949.00,0.0294
2948.00,0.0293
2947.00,0.0293
2946.00,0.0293
2945.00,0.0294
2944.00,0.0294
2943.00,0.0295
2942.00,0.0295
2941.00,0.0296
2940.00,0.0297
2939.00,0.0298
2938.00,0.0298
2937.00,0.0299
2936.00,0.0301
2935.00,0.0302
2934.00,0.0304
2933.00,0.0306
2932.00,0.0308
2931.00,0.0310
2930.00,0.0311
2929.00,0.0313
2928.00,0.0315
2927.00,0.0317
2926.00,0.0319
2925.00,0.0320
2924.00,0.0321
2923.00,0.0321
2922.00,0.0322
2921.00,0.0322
2920.00,0.0322
2919.00,0.0321
2918.00,0.0319
2917.00,0.0317
2916.00,0.0314
2915.00,0.0311
2914.00,0.0307
2913.00,0.0304
2912.00,0.0301
2911.00,0.0298
2910.00,0.0295
2909.00,0.0292
2908.00,0.0289
2907.00,0.0287
2906.00,0.0284
2905.00,0.0282
2904.00,0.0280
2903.00,0.0277
2902.00,0.0275
2901.00,0.0273
2900.00,0.0271
2899.00,0.0269
2898.00,0.0267
2897.00,0.0265
2896.00,0.0263
2895.00,0.0261
2894.00,0.0258
2893.00,0.0256
2892.00,0.0254
2891.00,0.0253
2890.00,0.0251
2889.00,0.0249
2888.00,0.0247
2887.00,0.0245
2886.00,0.0244
2885.00,0.0242
2884.00,0.0241
2883.00,0.0240
2882.00,0.0239
2881.00,0.0238
2880.00,0.0236
2879.00,0.0234
2878.00,0.0233
2877.00,0.0232
2876.00,0.0231
2875.00,0.0230
2874.00,0.0229
2873.00,0.0228
2872.00,0.0226
2871.00,0.0225
2870.00,0.0224
2869.00,0.0222
2868.00,0.0221
2867.00,0.0221
2866.00,0.0220
2865.00,0.0219
2864.00,0.0219
2863.00,0.0218
2862.00,0.0218
2861.00,0.0219
2860.00,0.0219
2859.00,0.0220
2858.00,0.0221
2857.00,0.0222
2856.00,0.0223
2855.00,0.0223
2854.00,0.0224
2853.00,0.0223
2852.00,0.0222
2851.00,0.0221
2850.00,0.0218
2849.00,0.0215
2848.00,0.0211
2847.00,0.0207
2846.00,0.0203
2845.00,0.0199
2844.00,0.0196
2843.00,0.0192
2842.00,0.0189
2841.00,0.0187
2840.00,0.0185
2839.00,0.0183
2838.00,0.0181
2837.00,0.0179
2836.00,0.0177
2835.00,0.0176
2834.00,0.0175
2833.00,0.0173
2832.00,0.0172
2831.00,0.0171
2830.00,0.0170
2829.00,0.0169
2828.00,0.0169
2827.00,0.0168
2826.00,0.0167
2825.00,0.0166
2824.00,0.0165
2823.00,0.0165
2822.00,0.0164
2821.00,0.0163
2820.00,0.0162
2819.00,0.0162
2818.00,0.0161
2817.00,0.0160
2816.00,0.0160
2815.00,0.0159
2814.00,0.0158
2813.00,0.0158
2812.00,0.0157
2811.00,0.0157
2810.00,0.0156
2809.00,0.0155
2808.00,0.0154
2807.00,0.0154
2806.00,0.0153
2805.00,0.0153
2804.00,0.0152
2803.00,0.0152
2802.00,0.0152
2801.00,0.0152
2800.00,0.0152
2799.00,0.0151
2798.00,0.0151
2797.00,0.0150
2796.00,0.0150
2795.00,0.0149
2794.00,0.0149
2793.00,0.0149
2792.00,0.0148
2791.00,0.0148
2790.00,0.0148
2789.00,0.0147
2788.00,0.0147
2787.00,0.0146
2786.00,0.0146
2785.00,0.0145
2784.00,0.0145
2783.00,0.0144
2782.00,0.0144
2781.00,0.0143
2780.00,0.0143
2779.00,0.0142
2778.00,0.0142
2777.00,0.0141
2776.00,0.0141
2775.00,0.0141
2774.00,0.0140
2773.00,0.0140
2772.00,0.0139
2771.00,0.0139
2770.00,0.0138
2769.00,0.0138
2768.00,0.0138
2767.00,0.0138
2766.00,0.0137
2765.00,0.0137
2764.00,0.0137
2763.00,0.0136
2762.00,0.0136
2761.00,0.0136
2760.00,0.0136
2759.00,0.0135
2758.00,0.0135
2757.00,0.0134
2756.00,0.0134
2755.00,0.0133
2754.00,0.0133
2753.00,0.0133
2752.00,0.0133
2751.00,0.0133
2750.00,0.0133
2749.00,0.0132
2748.00,0.0132
2747.00,0.0132
2746.00,0.0132
2745.00,0.0131
2744.00,0.0131
2743.00,0.0130
2742.00,0.0130
2741.00,0.0130
2740.00,0.0130
2739.00,0.0130
2738.00,0.0130
2737.00,0.0130
2736.00,0.0129
2735.00,0.0129
2734.00,0.0129
2733.00,0.0129
2732.00,0.0128
2731.00,0.0128
2730.00,0.0128
2729.00,0.0128
2728.00,0.0128
2727.00,0.0127
2726.00,0.0127
2725.00,0.0127
2724.00,0.0127
2723.00,0.0127
2722.00,0.0126
2721.00,0.0126
2720.00,0.0126
2719.00,0.0126
2718.00,0.0125
2717.00,0.0125
2716.00,0.0125
2715.00,0.0125
2714.00,0.0125
2713.00,0.0124
2712.00,0.0124
2711.00,0.0124
2710.00,0.0124
2709.00,0.0124
2708.00,0.0123
2707.00,0.0123
2706.00,0.0123
2705.00,0.0123
2704.00,0.0122
2703.00,0.0122
2702.00,0.0122
2701.00,0.0122
2700.00,0.0122
2699.00,0.0121
2698.00,0.0121
2697.00,0.0121
2696.00,0.0120
2695.00,0.0120
2694.00,0.0120
2693.00,0.0120
2692.00,0.0120
2691.00,0.0120
2690.00,0.0120
2689.00,0.0120
2688.00,0.0120
2687.00,0.0119
2686.00,0.0119
2685.00,0.0119
2684.00,0.0119
2683.00,0.0119
2682.00,0.0119
2681.00,0.0119
2680.00,0.0119
2679.00,0.0119
2678.00,0.0118
2677.00,0.0118
2676.00,0.0118
2675.00,0.0117
2674.00,0.0117
2673.00,0.0117
2672.00,0.0117
2671.00,0.0117
2670.00,0.0117
2669.00,0.0117
2668.00,0.0117
2667.00,0.0117
2666.00,0.0117
2665.00,0.0118
2664.00,0.0118
2663.00,0.0118
2662.00,0.0118
2661.00,0.0119
2660.00,0.0119
2659.00,0.0120
2658.00,0.0120
2657.00,0.0121
2656.00,0.0121
2655.00,0.0121
2654.00,0.0121
2653.00,0.0121
2652.00,0.0120
2651.00,0.0120
2650.00,0.0119
2649.00,0.0119
2648.00,0.0118
2647.00,0.0118
2646.00,0.0118
2645.00,0.0118
2644.00,0.0118
2643.00,0.0117
2642.00,0.0117
2641.00,0.0117
2640.00,0.0116
2639.00,0.0116
2638.00,0.0115
2637.00,0.0115
2636.00,0.0114
2635.00,0.0114
2634.00,0.0114
2633.00,0.0114
2632.00,0.0114
2631.00,0.0113
2630.00,0.0113
2629.00,0.0113
2628.00,0.0113
2627.00,0.0112
2626.00,0.0111
2625.00,0.0110
2624.00,0.0110
2623.00,0.0110
2622.00,0.0109
2621.00,0.0109
2620.00,0.0109
2619.00,0.0108
2618.00,0.0108
2617.00,0.0108
2616.00,0.0108
2615.00,0.0108
2614.00,0.0108
2613.00,0.0107
2612.00,0.0107
2611.00,0.0107
2610.00,0.0107
2609.00,0.0106
2608.00,0.0106
2607.00,0.0105
2606.00,0.0105
2605.00,0.0105
2604.00,0.0105
2603.00,0.0104
2602.00,0.0104
2601.00,0.0104
2600.00,0.0104
2599.00,0.0104
2598.00,0.0104
2597.00,0.0104
2596.00,0.0104
2595.00,0.0103
2594.00,0.0103
2593.00,0.0102
2592.00,0.0101
2591.00,0.0101
2590.00,0.0102
2589.00,0.0102
2588.00,0.0102
2587.00,0.0102
2586.00,0.0101
2585.00,0.0101
2584.00,0.0100
2583.00,0.0100
2582.00,0.0099
2581.00,0.0099
2580.00,0.0099
2579.00,0.0099
2578.00,0.0099
2577.00,0.0099
2576.00,0.0099
2575.00,0.0099
2574.00,0.0099
2573.00,0.0099
2572.00,0.0098
2571.00,0.0098
2570.00,0.0098
2569.00,0.0097
2568.00,0.0097
2567.00,0.0097
2566.00,0.0097
2565.00,0.0097
2564.00,0.0096
2563.00,0.0096
2562.00,0.0096
2561.00,0.0096
2560.00,0.0096
2559.00,0.0096
2558.00,0.0096
2557.00,0.0097
2556.00,0.0096
2555.00,0.0096
2554.00,0.0095
2553.00,0.0094
2552.00,0.0094
2551.00,0.0094
2550.00,0.0094
2549.00,0.0094
2548.00,0.0095
2547.00,0.0095
2546.00,0.0094
2545.00,0.0094
2544.00,0.0093
2543.00,0.0094
2542.00,0.0094
2541.00,0.0094
2540.00,0.0094
2539.00,0.0094
2538.00,0.0094
2537.00,0.0094
2536.00,0.0094
2535.00,0.0094
2534.00,0.0093
2533.00,0.0093
2532.00,0.0093
2531.00,0.0093
2530.00,0.0093
2529.00,0.0094
2528.00,0.0093
2527.00,0.0093
2526.00,0.0093
2525.00,0.0092
2524.00,0.0092
2523.00,0.0093
2522.00,0.0093
2521.00,0.0092
2520.00,0.0092
2519.00,0.0092
2518.00,0.0092
2517.00,0.0091
2516.00,0.0092
2515.00,0.0092
2514.00,0.0092
2513.00,0.0093
2512.00,0.0094
2511.00,0.0093
2510.00,0.0093
2509.00,0.0092
2508.00,0.0091
2507.00,0.0091
2506.00,0.0091
2505.00,0.0091
2504.00,0.0091
2503.00,0.0092
2502.00,0.0092
2501.00,0.0093
2500.00,0.0093
2499.00,0.0093
2498.00,0.0092
2497.00,0.0092
2496.00,0.0092
2495.00,0.0091
2494.00,0.0092
2493.00,0.0092
2492.00,0.0092
2491.00,0.0092
2490.00,0.0092
2489.00,0.0091
2488.00,0.0091
2487.00,0.0091
2486.00,0.0092
2485.00,0.0091
2484.00,0.0091
2483.00,0.0091
2482.00,0.0091
2481.00,0.0090
2480.00,0.0090
2479.00,0.0090
2478.00,0.0089
2477.00,0.0089
2476.00,0.0089
2475.00,0.0089
2474.00,0.0089
2473.00,0.0090
2472.00,0.0090
2471.00,0.0090
2470.00,0.0090
2469.00,0.0090
2468.00,0.0089
2467.00,0.0089
2466.00,0.0089
2465.00,0.0089
2464.00,0.0090
2463.00,0.0090
2462.00,0.0091
2461.00,0.0091
2460.00,0.0092
2459.00,0.0092
2458.00,0.0092
2457.00,0.0092
2456.00,0.0092
2455.00,0.0091
2454.00,0.0092
2453.00,0.0092
2452.00,0.0092
2451.00,0.0092
2450.00,0.0092
2449.00,0.0092
2448.00,0.0092
2447.00,0.0092
2446.00,0.0092
2445.00,0.0092
2444.00,0.0092
2443.00,0.0091
2442.00,0.0091
2441.00,0.0090
2440.00,0.0090
2439.00,0.0090
2438.00,0.0089
2437.00,0.0089
2436.00,0.0090
2435.00,0.0090
2434.00,0.0091
2433.00,0.0091
2432.00,0.0091
2431.00,0.0091
2430.00,0.0091
2429.00,0.0090
2428.00,0.0090
2427.00,0.0089
2426.00,0.0089
2425.00,0.0088
2424.00,0.0088
2423.00,0.0088
2422.00,0.0088
2421.00,0.0088
2420.00,0.0089
2419.00,0.0089
2418.00,0.0090
2417.00,0.0090
2416.00,0.0089
2415.00,0.0089
2414.00,0.0088
2413.00,0.0088
2412.00,0.0088
2411.00,0.0089
2410.00,0.0089
2409.00,0.0089
2408.00,0.0089
2407.00,0.0089
2406.00,0.0089
2405.00,0.0088
2404.00,0.0088
2403.00,0.0087
2402.00,0.0087
2401.00,0.0088
2400.00,0.0088
2399.00,0.0088
2398.00,0.0089
2397.00,0.0089
2396.00,0.0089
2395.00,0.0089
2394.00,0.0089
2393.00,0.0089
2392.00,0.0089
2391.00,0.0089
2390.00,0.0089
2389.00,0.0089
2388.00,0.0089
2387.00,0.0089
2386.00,0.0089
2385.00,0.0089
2384.00,0.0089
2383.00,0.0089
2382.00,0.0089
2381.00,0.0088
2380.00,0.0087
2379.00,0.0086
2378.00,0.0086
2377.00,0.0087
2376.00,0.0088
2375.00,0.0089
2374.00,0.0090
2373.00,0.0090
2372.00,0.0090
2371.00,0.0090
2370.00,0.0089
2369.00,0.0089
2368.00,0.0089
2367.00,0.0089
2366.00,0.0089
2365.00,0.0090
2364.00,0.0091
2363.00,0.0092
2362.00,0.0093
2361.00,0.0093
2360.00,0.0093
2359.00,0.0093
2358.00,0.0094
2357.00,0.0094
2356.00,0.0095
2355.00,0.0095
2354.00,0.0095
2353.00,0.0095
2352.00,0.0095
2351.00,0.0094
2350.00,0.0095
2349.00,0.0097
2348.00,0.0100
2347.00,0.0102
2346.00,0.0103
2345.00,0.0102
2344.00,0.0101
2343.00,0.0101
2342.00,0.0103
2341.00,0.0103
2340.00,0.0104
2339.00,0.0104
2338.00,0.0104
2337.00,0.0104
2336.00,0.0104
2335.00,0.0104
2334.00,0.0105
2333.00,0.0105
2332.00,0.0104
2331.00,0.0103
2330.00,0.0103
2329.00,0.0104
2328.00,0.0108
2327.00,0.0113
2326.00,0.0120
2325.00,0.0125
2324.00,0.0128
2323.00,0.0128
2322.00,0.0126
2321.00,0.0124
2320.00,0.0122
2319.00,0.0121
2318.00,0.0120
2317.00,0.0120
2316.00,0.0119
2315.00,0.0117
2314.00,0.0116
2313.00,0.0115
2312.00,0.0115
2311.00,0.0114
2310.00,0.0114
2309.00,0.0114
2308.00,0.0115
2307.00,0.0115
2306.00,0.0115
2305.00,0.0115
2304.00,0.0115
2303.00,0.0116
2302.00,0.0116
2301.00,0.0117
2300.00,0.0118
2299.00,0.0119
2298.00,0.0120
2297.00,0.0120
2296.00,0.0120
2295.00,0.0121
2294.00,0.0122
2293.00,0.0123
2292.00,0.0125
2291.00,0.0126
2290.00,0.0127
2289.00,0.0129
2288.00,0.0131
2287.00,0.0132
2286.00,0.0133
2285.00,0.0133
2284.00,0.0133
2283.00,0.0132
2282.00,0.0130
2281.00,0.0128
2280.00,0.0126
2279.00,0.0125
2278.00,0.0124
2277.00,0.0123
2276.00,0.0122
2275.00,0.0122
2274.00,0.0122
2273.00,0.0122
2272.00,0.0123
2271.00,0.0123
2270.00,0.0124
2269.00,0.0124
2268.00,0.0123
2267.00,0.0122
2266.00,0.0121
2265.00,0.0120
2264.00,0.0119
2263.00,0.0119
2262.00,0.0119
2261.00,0.0120
2260.00,0.0121
2259.00,0.0122
2258.00,0.0122
2257.00,0.0121
2256.00,0.0119
2255.00,0.0117
2254.00,0.0116
2253.00,0.0115
2252.00,0.0115
2251.00,0.0116
2250.00,0.0116
2249.00,0.0117
2248.00,0.0118
2247.00,0.0118
2246.00,0.0118
2245.00,0.0117
2244.00,0.0117
2243.00,0.0117
2242.00,0.0117
2241.00,0.0118
2240.00,0.0118
2239.00,0.0118
2238.00,0.0117
2237.00,0.0118
2236.00,0.0119
2235.00,0.0121
2234.00,0.0121
2233.00,0.0121
2232.00,0.0119
2231.00,0.0118
2230.00,0.0117
2229.00,0.0118
2228.00,0.0120
2227.00,0.0121
2226.00,0.0120
2225.00,0.0119
2224.00,0.0118
2223.00,0.0118
2222.00,0.0118
2221.00,0.0118
2220.00,0.0118
2219.00,0.0118
2218.00,0.0118
2217.00,0.0117
2216.00,0.0117
2215.00,0.0118
2214.00,0.0120
2213.00,0.0122
2212.00,0.0122
2211.00,0.0121
2210.00,0.0119
2209.00,0.0118
2208.00,0.0118
2207.00,0.0118
2206.00,0.0118
2205.00,0.0118
2204.00,0.0118
2203.00,0.0117
2202.00,0.0116
2201.00,0.0115
2200.00,0.0115
2199.00,0.0116
2198.00,0.0119
2197.00,0.0121
2196.00,0.0124
2195.00,0.0125
2194.00,0.0125
2193.00,0.0124
2192.00,0.0123
2191.00,0.0122
2190.00,0.0122
2189.00,0.0123
2188.00,0.0124
2187.00,0.0123
2186.00,0.0123
2185.00,0.0124
2184.00,0.0125
2183.00,0.0125
2182.00,0.0123
2181.00,0.0118
2180.00,0.0115
2179.00,0.0114
2178.00,0.0115
2177.00,0.0115
2176.00,0.0115
2175.00,0.0115
2174.00,0.0115
2173.00,0.0116
2172.00,0.0119
2171.00,0.0123
2170.00,0.0126
2169.00,0.0128
2168.00,0.0129
2167.00,0.0130
2166.00,0.0131
2165.00,0.0132
2164.00,0.0133
2163.00,0.0134
2162.00,0.0134
2161.00,0.0127
2160.00,0.0112
2159.00,0.0092
2158.00,0.0073
2157.00,0.0064
2156.00,0.0063
2155.00,0.0068
2154.00,0.0075
2153.00,0.0081
2152.00,0.0085
2151.00,0.0089
2150.00,0.0090
2149.00,0.0091
2148.00,0.0093
2147.00,0.0094
2146.00,0.0095
2145.00,0.0094
2144.00,0.0093
2143.00,0.0094
2142.00,0.0096
2141.00,0.0099
2140.00,0.0100
2139.00,0.0101
2138.00,0.0100
2137.00,0.0099
2136.00,0.0098
2135.00,0.0096
2134.00,0.0094
2133.00,0.0094
2132.00,0.0097
2131.00,0.0101
2130.00,0.0106
2129.00,0.0111
2128.00,0.0114
2127.00,0.0117
2126.00,0.0118
2125.00,0.0120
2124.00,0.0122
2123.00,0.0124
2122.00,0.0126
2121.00,0.0127
2120.00,0.0129
2119.00,0.0130
2118.00,0.0131
2117.00,0.0133
2116.00,0.0136
2115.00,0.0139
2114.00,0.0141
2113.00,0.0142
2112.00,0.0142
2111.00,0.0141
2110.00,0.0140
2109.00,0.0140
2108.00,0.0142
2107.00,0.0144
2106.00,0.0146
2105.00,0.0147
2104.00,0.0148
2103.00,0.0147
2102.00,0.0145
2101.00,0.0144
2100.00,0.0143
2099.00,0.0142
2098.00,0.0140
2097.00,0.0138
2096.00,0.0135
2095.00,0.0131
2094.00,0.0130
2093.00,0.0130
2092.00,0.0132
2091.00,0.0134
2090.00,0.0135
2089.00,0.0136
2088.00,0.0137
2087.00,0.0137
2086.00,0.0136
2085.00,0.0136
2084.00,0.0138
2083.00,0.0139
2082.00,0.0139
2081.00,0.0139
2080.00,0.0139
2079.00,0.0140
2078.00,0.0141
2077.00,0.0141
2076.00,0.0141
2075.00,0.0140
2074.00,0.0140
2073.00,0.0139
2072.00,0.0138
2071.00,0.0137
2070.00,0.0135
2069.00,0.0134
2068.00,0.0133
2067.00,0.0131
2066.00,0.0130
2065.00,0.0129
2064.00,0.0128
2063.00,0.0128
2062.00,0.0127
2061.00,0.0127
2060.00,0.0128
2059.00,0.0130
2058.00,0.0131
2057.00,0.0131
2056.00,0.0131
2055.00,0.0130
2054.00,0.0130
2053.00,0.0132
2052.00,0.0136
2051.00,0.0139
2050.00,0.0139
2049.00,0.0136
2048.00,0.0131
2047.00,0.0128
2046.00,0.0125
2045.00,0.0124
2044.00,0.0123
2043.00,0.0121
2042.00,0.0119
2041.00,0.0117
2040.00,0.0116
2039.00,0.0117
2038.00,0.0118
2037.00,0.0118
2036.00,0.0116
2035.00,0.0114
2034.00,0.0111
2033.00,0.0110
2032.00,0.0110
2031.00,0.0110
2030.00,0.0109
2029.00,0.0107
2028.00,0.0106
2027.00,0.0104
2026.00,0.0103
2025.00,0.0101
2024.00,0.0101
2023.00,0.0103
2022.00,0.0105
2021.00,0.0107
2020.00,0.0107
2019.00,0.0104
2018.00,0.0101
2017.00,0.0098
2016.00,0.0098
2015.00,0.0099
2014.00,0.0101
2013.00,0.0103
2012.00,0.0105
2011.00,0.0106
2010.00,0.0106
2009.00,0.0105
2008.00,0.0102
2007.00,0.0096
2006.00,0.0090
2005.00,0.0087
2004.00,0.0087
2003.00,0.0088
2002.00,0.0090
2001.00,0.0093
2000.00,0.0096
1999.00,0.0100
1998.00,0.0104
1997.00,0.0109
1996.00,0.0112
1995.00,0.0113
1994.00,0.0113
1993.00,0.0112
1992.00,0.0111
1991.00,0.0112
1990.00,0.0113
1989.00,0.0114
1988.00,0.0114
1987.00,0.0114
1986.00,0.0114
1985.00,0.0116
1984.00,0.0119
1983.00,0.0121
1982.00,0.0124
1981.00,0.0126
1980.00,0.0125
1979.00,0.0120
1978.00,0.0110
1977.00,0.0100
1976.00,0.0092
1975.00,0.0086
1974.00,0.0082
1973.00,0.0080
1972.00,0.0079
1971.00,0.0080
1970.00,0.0081
1969.00,0.0083
1968.00,0.0086
1967.00,0.0089
1966.00,0.0091
1965.00,0.0094
1964.00,0.0095
1963.00,0.0095
1962.00,0.0093
1961.00,0.0089
1960.00,0.0085
1959.00,0.0084
1958.00,0.0084
1957.00,0.0087
1956.00,0.0091
1955.00,0.0093
1954.00,0.0093
1953.00,0.0093
1952.00,0.0093
1951.00,0.0093
1950.00,0.0093
1949.00,0.0094
1948.00,0.0094
1947.00,0.0094
1946.00,0.0093
1945.00,0.0092
1944.00,0.0091
1943.00,0.0090
1942.00,0.0089
1941.00,0.0090
1940.00,0.0093
1939.00,0.0095
1938.00,0.0095
1937.00,0.0095
1936.00,0.0095
1935.00,0.0095
1934.00,0.0095
1933.00,0.0096
1932.00,0.0096
1931.00,0.0097
1930.00,0.0097
1929.00,0.0096
1928.00,0.0096
1927.00,0.0095
1926.00,0.0095
1925.00,0.0097
1924.00,0.0099
1923.00,0.0100
1922.00,0.0100
1921.00,0.0100
1920.00,0.0100
1919.00,0.0100
1918.00,0.0100
1917.00,0.0098
1916.00,0.0098
1915.00,0.0098
1914.00,0.0099
1913.00,0.0100
1912.00,0.0101
1911.00,0.0102
1910.00,0.0102
1909.00,0.0102
1908.00,0.0101
1907.00,0.0100
1906.00,0.0100
1905.00,0.0100
1904.00,0.0100
1903.00,0.0101
1902.00,0.0101
1901.00,0.0101
1900.00,0.0101
1899.00,0.0100
1898.00,0.0100
1897.00,0.0100
1896.00,0.0100
1895.00,0.0101
1894.00,0.0101
1893.00,0.0101
1892.00,0.0101
1891.00,0.0102
1890.00,0.0101
1889.00,0.0100
1888.00,0.0100
1887.00,0.0101
1886.00,0.0101
1885.00,0.0102
1884.00,0.0102
1883.00,0.0102
1882.00,0.0101
1881.00,0.0101
1880.00,0.0101
1879.00,0.0100
1878.00,0.0100
1877.00,0.0100
1876.00,0.0100
1875.00,0.0101
1874.00,0.0102
1873.00,0.0103
1872.00,0.0104
1871.00,0.0105
1870.00,0.0105
1869.00,0.0104
1868.00,0.0103
1867.00,0.0102
1866.00,0.0103
1865.00,0.0103
1864.00,0.0104
1863.00,0.0103
1862.00,0.0103
1861.00,0.0103
1860.00,0.0103
1859.00,0.0103
1858.00,0.0103
1857.00,0.0103
1856.00,0.0103
1855.00,0.0104
1854.00,0.0103
1853.00,0.0103
1852.00,0.0103
1851.00,0.0104
1850.00,0.0104
1849.00,0.0105
1848.00,0.0105
1847.00,0.0106
1846.00,0.0108
1845.00,0.0108
1844.00,0.0107
1843.00,0.0106
1842.00,0.0106
1841.00,0.0107
1840.00,0.0109
1839.00,0.0109
1838.00,0.0109
1837.00,0.0108
1836.00,0.0108
1835.00,0.0108
1834.00,0.0107
1833.00,0.0108
1832.00,0.0108
1831.00,0.0109
1830.00,0.0108
1829.00,0.0108
1828.00,0.0108
1827.00,0.0110
1826.00,0.0111
1825.00,0.0111
1824.00,0.0111
1823.00,0.0111
1822.00,0.0111
1821.00,0.0112
1820.00,0.0112
1819.00,0.0112
1818.00,0.0111
1817.00,0.0110
1816.00,0.0110
1815.00,0.0111
1814.00,0.0113
1813.00,0.0115
1812.00,0.0117
1811.00,0.0118
1810.00,0.0118
1809.00,0.0118
1808.00,0.0118
1807.00,0.0118
1806.00,0.0118
1805.00,0.0119
1804.00,0.0120
1803.00,0.0121
1802.00,0.0122
1801.00,0.0122
1800.00,0.0122
1799.00,0.0123
1798.00,0.0125
1797.00,0.0127
1796.00,0.0128
1795.00,0.0129
1794.00,0.0130
1793.00,0.0131
1792.00,0.0129
1791.00,0.0128
1790.00,0.0128
1789.00,0.0130
1788.00,0.0131
1787.00,0.0132
1786.00,0.0132
1785.00,0.0132
1784.00,0.0133
1783.00,0.0133
1782.00,0.0134
1781.00,0.0135
1780.00,0.0135
1779.00,0.0135
1778.00,0.0136
1777.00,0.0137
1776.00,0.0138
1775.00,0.0139
1774.00,0.0141
1773.00,0.0143
1772.00,0.0142
1771.00,0.0142
1770.00,0.0143
1769.00,0.0145
1768.00,0.0147
1767.00,0.0147
1766.00,0.0147
1765.00,0.0148
1764.00,0.0150
1763.00,0.0151
1762.00,0.0152
1761.00,0.0152
1760.00,0.0153
1759.00,0.0155
1758.00,0.0157
1757.00,0.0159
1756.00,0.0161
1755.00,0.0162
1754.00,0.0165
1753.00,0.0169
1752.00,0.0174
1751.00,0.0177
1750.00,0.0179
1749.00,0.0180
1748.00,0.0182
1747.00,0.0184
1746.00,0.0185
1745.00,0.0187
1744.00,0.0189
1743.00,0.0189
1742.00,0.0190
1741.00,0.0192
1740.00,0.0194
1739.00,0.0195
1738.00,0.0195
1737.00,0.0197
1736.00,0.0201
1735.00,0.0206
1734.00,0.0208
1733.00,0.0208
1732.00,0.0209
1731.00,0.0210
1730.00,0.0211
1729.00,0.0213
1728.00,0.0215
1727.00,0.0217
1726.00,0.0219
1725.00,0.0222
1724.00,0.0225
1723.00,0.0228
1722.00,0.0231
1721.00,0.0232
1720.00,0.0236
1719.00,0.0241
1718.00,0.0247
1717.00,0.0254
1716.00,0.0260
1715.00,0.0263
1714.00,0.0266
1713.00,0.0269
1712.00,0.0273
1711.00,0.0277
1710.00,0.0281
1709.00,0.0285
1708.00,0.0289
1707.00,0.0294
1706.00,0.0299
1705.00,0.0304
1704.00,0.0308
1703.00,0.0313
1702.00,0.0319
1701.00,0.0327
1700.00,0.0338
1699.00,0.0349
1698.00,0.0359
1697.00,0.0369
1696.00,0.0380
1695.00,0.0389
1694.00,0.0396
1693.00,0.0403
1692.00,0.0412
1691.00,0.0422
1690.00,0.0433
1689.00,0.0443
1688.00,0.0453
1687.00,0.0462
1686.00,0.0472
1685.00,0.0486
1684.00,0.0503
1683.00,0.0520
1682.00,0.0533
1681.00,0.0545
1680.00,0.0557
1679.00,0.0568
1678.00,0.0578
1677.00,0.0588
1676.00,0.0604
1675.00,0.0622
1674.00,0.0639
1673.00,0.0653
1672.00,0.0665
1671.00,0.0680
1670.00,0.0697
1669.00,0.0717
1668.00,0.0736
1667.00,0.0751
1666.00,0.0762
1665.00,0.0773
1664.00,0.0788
1663.00,0.0806
1662.00,0.0825
1661.00,0.0842
1660.00,0.0857
1659.00,0.0871
1658.00,0.0881
1657.00,0.0887
1656.00,0.0891
1655.00,0.0897
1654.00,0.0914
1653.00,0.0948
1652.00,0.0980
1651.00,0.0995
1650.00,0.0997
1649.00,0.0999
1648.00,0.1006
1647.00,0.1021
1646.00,0.1038
1645.00,0.1051
1644.00,0.1058
1643.00,0.1061
1642.00,0.1063
1641.00,0.1065
1640.00,0.1067
1639.00,0.1066
1638.00,0.1064
1637.00,0.1064
1636.00,0.1068
1635.00,0.1075
1634.00,0.1077
1633.00,0.1073
1632.00,0.1066
1631.00,0.1058
1630.00,0.1049
1629.00,0.1039
1628.00,0.1029
1627.00,0.1020
1626.00,0.1009
1625.00,0.0997
1624.00,0.0983
1623.00,0.0970
1622.00,0.0955
1621.00,0.0940
1620.00,0.0925
1619.00,0.0909
1618.00,0.0892
1617.00,0.0874
1616.00,0.0857
1615.00,0.0840
1614.00,0.0822
1613.00,0.0805
1612.00,0.0788
1611.00,0.0771
1610.00,0.0754
1609.00,0.0737
1608.00,0.0721
1607.00,0.0705
1606.00,0.0690
1605.00,0.0676
1604.00,0.0661
1603.00,0.0647
1602.00,0.0634
1601.00,0.0621
1600.00,0.0609
1599.00,0.0597
1598.00,0.0586
1597.00,0.0576
1596.00,0.0565
1595.00,0.0555
1594.00,0.0546
1593.00,0.0536
1592.00,0.0527
1591.00,0.0519
1590.00,0.0511
1589.00,0.0503
1588.00,0.0495
1587.00,0.0489
1586.00,0.0483
1585.00,0.0477
1584.00,0.0472
1583.00,0.0467
1582.00,0.0462
1581.00,0.0457
1580.00,0.0452
1579.00,0.0448
1578.00,0.0446
1577.00,0.0444
1576.00,0.0441
1575.00,0.0437
1574.00,0.0432
1573.00,0.0427
1572.00,0.0423
1571.00,0.0419
1570.00,0.0415
1569.00,0.0412
1568.00,0.0409
1567.00,0.0408
1566.00,0.0406
1565.00,0.0404
1564.00,0.0401
1563.00,0.0397
1562.00,0.0394
1561.00,0.0390
1560.00,0.0386
1559.00,0.0386
1558.00,0.0387
1557.00,0.0387
1556.00,0.0388
1555.00,0.0388
1554.00,0.0387
1553.00,0.0385
1552.00,0.0382
1551.00,0.0380
1550.00,0.0379
1549.00,0.0376
1548.00,0.0375
1547.00,0.0373
1546.00,0.0373
1545.00,0.0372
1544.00,0.0370
1543.00,0.0370
1542.00,0.0370
1541.00,0.0370
1540.00,0.0367
1539.00,0.0361
1538.00,0.0356
1537.00,0.0352
1536.00,0.0349
1535.00,0.0346
1534.00,0.0344
1533.00,0.0340
1532.00,0.0337
1531.00,0.0335
1530.00,0.0334
1529.00,0.0332
1528.00,0.0330
1527.00,0.0328
1526.00,0.0327
1525.00,0.0325
1524.00,0.0323
1523.00,0.0322
1522.00,0.0321
1521.00,0.0319
1520.00,0.0316
1519.00,0.0314
1518.00,0.0313
1517.00,0.0312
1516.00,0.0310
1515.00,0.0308
1514.00,0.0307
1513.00,0.0307
1512.00,0.0307
1511.00,0.0305
1510.00,0.0304
1509.00,0.0304
1508.00,0.0305
1507.00,0.0304
1506.00,0.0300
1505.00,0.0298
1504.00,0.0297
1503.00,0.0296
1502.00,0.0295
1501.00,0.0294
1500.00,0.0293
1499.00,0.0292
1498.00,0.0292
1497.00,0.0293
1496.00,0.0294
1495.00,0.0293
1494.00,0.0293
1493.00,0.0295
1492.00,0.0298
1491.00,0.0301
1490.00,0.0303
1489.00,0.0304
1488.00,0.0305
1487.00,0.0306
1486.00,0.0308
1485.00,0.0311
1484.00,0.0314
1483.00,0.0317
1482.00,0.0320
1481.00,0.0324
1480.00,0.0328
1479.00,0.0331
1478.00,0.0335
1477.00,0.0339
1476.00,0.0342
1475.00,0.0346
1474.00,0.0351
1473.00,0.0356
1472.00,0.0358
1471.00,0.0359
1470.00,0.0359
1469.00,0.0361
1468.00,0.0362
1467.00,0.0362
1466.00,0.0363
1465.00,0.0365
1464.00,0.0367
1463.00,0.0368
1462.00,0.0370
1461.00,0.0371
1460.00,0.0371
1459.00,0.0372
1458.00,0.0375
1457.00,0.0380
1456.00,0.0383
1455.00,0.0384
1454.00,0.0384
1453.00,0.0384
1452.00,0.0384
1451.00,0.0384
1450.00,0.0384
1449.00,0.0384
1448.00,0.0384
1447.00,0.0384
1446.00,0.0385
1445.00,0.0386
1444.00,0.0387
1443.00,0.0388
1442.00,0.0390
1441.00,0.0391
1440.00,0.0392
1439.00,0.0393
1438.00,0.0394
1437.00,0.0397
1436.00,0.0400
1435.00,0.0403
1434.00,0.0405
1433.00,0.0407
1432.00,0.0408
1431.00,0.0408
1430.00,0.0408
1429.00,0.0408
1428.00,0.0409
1427.00,0.0409
1426.00,0.0410
1425.00,0.0412
1424.00,0.0413
1423.00,0.0412
1422.00,0.0412
1421.00,0.0411
1420.00,0.0412
1419.00,0.0413
1418.00,0.0414
1417.00,0.0415
1416.00,0.0415
1415.00,0.0415
1414.00,0.0414
1413.00,0.0413
1412.00,0.0413
1411.00,0.0413
1410.00,0.0414
1409.00,0.0414
1408.00,0.0414
1407.00,0.0415
1406.00,0.0415
1405.00,0.0415
1404.00,0.0415
1403.00,0.0415
1402.00,0.0414
1401.00,0.0414
1400.00,0.0413
1399.00,0.0413
1398.00,0.0413
1397.00,0.0413
1396.00,0.0412
1395.00,0.0411
1394.00,0.0411
1393.00,0.0412
1392.00,0.0413
1391.00,0.0416
1390.00,0.0419
1389.00,0.0424
1388.00,0.0431
1387.00,0.0440
1386.00,0.0450
1385.00,0.0459
1384.00,0.0468
1383.00,0.0477
1382.00,0.0485
1381.00,0.0492
1380.00,0.0499
1379.00,0.0505
1378.00,0.0509
1377.00,0.0512
1376.00,0.0514
1375.00,0.0514
1374.00,0.0513
1373.00,0.0512
1372.00,0.0511
1371.00,0.0509
1370.00,0.0506
1369.00,0.0503
1368.00,0.0499
1367.00,0.0496
1366.00,0.0493
1365.00,0.0490
1364.00,0.0488
1363.00,0.0487
1362.00,0.0486
1361.00,0.0486
1360.00,0.0486
1359.00,0.0486
1358.00,0.0486
1357.00,0.0485
1356.00,0.0485
1355.00,0.0484
1354.00,0.0482
1353.00,0.0480
1352.00,0.0478
1351.00,0.0475
1350.00,0.0471
1349.00,0.0466
1348.00,0.0460
1347.00,0.0455
1346.00,0.0450
1345.00,0.0445
1344.00,0.0442
1343.00,0.0439
1342.00,0.0437
1341.00,0.0436
1340.00,0.0435
1339.00,0.0434
1338.00,0.0433
1337.00,0.0433
1336.00,0.0432
1335.00,0.0430
1334.00,0.0429
1333.00,0.0428
1332.00,0.0427
1331.00,0.0427
1330.00,0.0427
1329.00,0.0428
1328.00,0.0429
1327.00,0.0431
1326.00,0.0432
1325.00,0.0433
1324.00,0.0434
1323.00,0.0436
1322.00,0.0437
1321.00,0.0439
1320.00,0.0441
1319.00,0.0443
1318.00,0.0444
1317.00,0.0446
1316.00,0.0447
1315.00,0.0449
1314.00,0.0450
1313.00,0.0451
1312.00,0.0453
1311.00,0.0454
1310.00,0.0456
1309.00,0.0458
1308.00,0.0460
1307.00,0.0463
1306.00,0.0466
1305.00,0.0469
1304.00,0.0472
1303.00,0.0476
1302.00,0.0481
1301.00,0.0486
1300.00,0.0492
1299.00,0.0499
1298.00,0.0507
1297.00,0.0516
1296.00,0.0526
1295.00,0.0537
1294.00,0.0550
1293.00,0.0563
1292.00,0.0576
1291.00,0.0590
1290.00,0.0605
1289.00,0.0620
1288.00,0.0636
1287.00,0.0652
1286.00,0.0668
1285.00,0.0686
1284.00,0.0705
1283.00,0.0726
1282.00,0.0747
1281.00,0.0769
1280.00,0.0792
1279.00,0.0815
1278.00,0.0839
1277.00,0.0863
1276.00,0.0889
1275.00,0.0915
1274.00,0.0942
1273.00,0.0969
1272.00,0.0997
1271.00,0.1025
1270.00,0.1053
1269.00,0.1080
1268.00,0.1105
1267.00,0.1130
1266.00,0.1153
1265.00,0.1175
1264.00,0.1196
1263.00,0.1216
1262.00,0.1234
1261.00,0.1251
1260.00,0.1267
1259.00,0.1282
1258.00,0.1294
1257.00,0.1305
1256.00,0.1315
1255.00,0.1324
1254.00,0.1332
1253.00,0.1340
1252.00,0.1346
1251.00,0.1352
1250.00,0.1357
1249.00,0.1362
1248.00,0.1367
1247.00,0.1372
1246.00,0.1376
1245.00,0.1382
1244.00,0.1388
1243.00,0.1396
1242.00,0.1403
1241.00,0.1411
1240.00,0.1420
1239.00,0.1428
1238.00,0.1437
1237.00,0.1446
1236.00,0.1455
1235.00,0.1463
1234.00,0.1470
1233.00,0.1476
1232.00,0.1482
1231.00,0.1487
1230.00,0.1490
1229.00,0.1493
1228.00,0.1494
1227.00,0.1494
1226.00,0.1492
1225.00,0.1490
1224.00,0.1486
1223.00,0.1480
1222.00,0.1473
1221.00,0.1464
1220.00,0.1455
1219.00,0.1444
1218.00,0.1432
1217.00,0.1418
1216.00,0.1402
1215.00,0.1384
1214.00,0.1365
1213.00,0.1344
1212.00,0.1322
1211.00,0.1299
1210.00,0.1275
1209.00,0.1251
1208.00,0.1227
1207.00,0.1202
1206.00,0.1176
1205.00,0.1151
1204.00,0.1126
1203.00,0.1103
1202.00,0.1082
1201.00,0.1064
1200.00,0.1049
1199.00,0.1038
1198.00,0.1030
1197.00,0.1026
1196.00,0.1025
1195.00,0.1025
1194.00,0.1027
1193.00,0.1029
1192.00,0.1029
1191.00,0.1026
1190.00,0.1020
1189.00,0.1010
1188.00,0.0998
1187.00,0.0985
1186.00,0.0972
1185.00,0.0960
1184.00,0.0949
1183.00,0.0942
1182.00,0.0936
1181.00,0.0934
1180.00,0.0935
1179.00,0.0939
1178.00,0.0945
1177.00,0.0953
1176.00,0.0963
1175.00,0.0974
1174.00,0.0988
1173.00,0.1004
1172.00,0.1022
1171.00,0.1042
1170.00,0.1065
1169.00,0.1089
1168.00,0.1115
1167.00,0.1143
1166.00,0.1171
1165.00,0.1199
1164.00,0.1225
1163.00,0.1248
1162.00,0.1269
1161.00,0.1286
1160.00,0.1299
1159.00,0.1307
1158.00,0.1310
1157.00,0.1309
1156.00,0.1304
1155.00,0.1296
1154.00,0.1285
1153.00,0.1271
1152.00,0.1254
1151.00,0.1236
1150.00,0.1216
1149.00,0.1196
1148.00,0.1175
1147.00,0.1154
1146.00,0.1133
1145.00,0.1114
1144.00,0.1097
1143.00,0.1082
1142.00,0.1071
1141.00,0.1064
1140.00,0.1062
1139.00,0.1065
1138.00,0.1075
1137.00,0.1091
1136.00,0.1114
1135.00,0.1142
1134.00,0.1174
1133.00,0.1210
1132.00,0.1247
1131.00,0.1284
1130.00,0.1316
1129.00,0.1344
1128.00,0.1366
1127.00,0.1381
1126.00,0.1388
1125.00,0.1389
1124.00,0.1384
1123.00,0.1375
1122.00,0.1364
1121.00,0.1353
1120.00,0.1342
1119.00,0.1332
1118.00,0.1323
1117.00,0.1316
1116.00,0.1310
1115.00,0.1303
1114.00,0.1298
1113.00,0.1292
1112.00,0.1287
1111.00,0.1281
1110.00,0.1274
1109.00,0.1270
1108.00,0.1268
1107.00,0.1269
1106.00,0.1272
1105.00,0.1280
1104.00,0.1291
1103.00,0.1307
1102.00,0.1326
1101.00,0.1350
1100.00,0.1377
1099.00,0.1405
1098.00,0.1433
1097.00,0.1461
1096.00,0.1486
1095.00,0.1508
1094.00,0.1526
1093.00,0.1543
1092.00,0.1558
1091.00,0.1572
1090.00,0.1587
1089.00,0.1604
1088.00,0.1623
1087.00,0.1645
1086.00,0.1670
1085.00,0.1696
1084.00,0.1725
1083.00,0.1756
1082.00,0.1791
1081.00,0.1830
1080.00,0.1874
1079.00,0.1921
1078.00,0.1970
1077.00,0.2021
1076.00,0.2073
1075.00,0.2124
1074.00,0.2175
1073.00,0.2224
1072.00,0.2273
1071.00,0.2319
1070.00,0.2362
1069.00,0.2399
1068.00,0.2429
1067.00,0.2447
1066.00,0.2451
1065.00,0.2441
1064.00,0.2417
1063.00,0.2382
1062.00,0.2339
1061.00,0.2295
1060.00,0.2254
1059.00,0.2219
1058.00,0.2192
1057.00,0.2175
1056.00,0.2165
1055.00,0.2161
1054.00,0.2161
1053.00,0.2166
1052.00,0.2175
1051.00,0.2186
1050.00,0.2199
1049.00,0.2215
1048.00,0.2238
1047.00,0.2266
1046.00,0.2299
1045.00,0.2336
1044.00,0.2372
1043.00,0.2405
1042.00,0.2429
1041.00,0.2444
1040.00,0.2450
1039.00,0.2447
1038.00,0.2437
1037.00,0.2424
1036.00,0.2410
1035.00,0.2397
1034.00,0.2387
1033.00,0.2383
1032.00,0.2385
1031.00,0.2390
1030.00,0.2393
1029.00,0.2392
1028.00,0.2382
1027.00,0.2360
1026.00,0.2326
1025.00,0.2279
1024.00,0.2221
1023.00,0.2155
1022.00,0.2084
1021.00,0.2009
1020.00,0.1934
1019.00,0.1860
1018.00,0.1790
1017.00,0.1725
1016.00,0.1668
1015.00,0.1619
1014.00,0.1579
1013.00,0.1549
1012.00,0.1529
1011.00,0.1517
1010.00,0.1514
1009.00,0.1518
1008.00,0.1527
1007.00,0.1539
1006.00,0.1550
1005.00,0.1558
1004.00,0.1558
1003.00,0.1549
1002.00,0.1526
1001.00,0.1491
1000.00,0.1447
999.00,0.1397
998.00,0.1347
997.00,0.1301
996.00,0.1262
995.00,0.1230
994.00,0.1206
993.00,0.1189
992.00,0.1177
991.00,0.1169
990.00,0.1161
989.00,0.1152
988.00,0.1141
987.00,0.1125
986.00,0.1107
985.00,0.1088
984.00,0.1070
983.00,0.1055
982.00,0.1042
981.00,0.1034
980.00,0.1030
979.00,0.1029
978.00,0.1031
977.00,0.1036
976.00,0.1045
975.00,0.1056
974.00,0.1070
973.00,0.1087
972.00,0.1103
971.00,0.1116
970.00,0.1123
969.00,0.1121
968.00,0.1108
967.00,0.1084
966.00,0.1051
965.00,0.1012
964.00,0.0971
963.00,0.0933
962.00,0.0899
961.00,0.0871
960.00,0.0849
959.00,0.0834
958.00,0.0824
957.00,0.0818
956.00,0.0817
955.00,0.0819
954.00,0.0824
953.00,0.0831
952.00,0.0841
951.00,0.0852
950.00,0.0865
949.00,0.0879
948.00,0.0896
947.00,0.0914
946.00,0.0933
945.00,0.0956
944.00,0.0982
943.00,0.1012
942.00,0.1049
941.00,0.1093
940.00,0.1144
939.00,0.1201
938.00,0.1265
937.00,0.1333
936.00,0.1402
935.00,0.1469
934.00,0.1532
933.00,0.1589
932.00,0.1639
931.00,0.1684
930.00,0.1724
929.00,0.1760
928.00,0.1792
927.00,0.1819
926.00,0.1840
925.00,0.1855
924.00,0.1865
923.00,0.1870
922.00,0.1873
921.00,0.1873
920.00,0.1873
919.00,0.1871
918.00,0.1867
917.00,0.1860
916.00,0.1848
915.00,0.1830
914.00,0.1808
913.00,0.1784
912.00,0.1757
911.00,0.1727
910.00,0.1696
909.00,0.1665
908.00,0.1635
907.00,0.1606
906.00,0.1579
905.00,0.1554
904.00,0.1534
903.00,0.1516
902.00,0.1502
901.00,0.1489
900.00,0.1478
899.00,0.1469
898.00,0.1461
897.00,0.1456
896.00,0.1454
895.00,0.1453
894.00,0.1453
893.00,0.1453
892.00,0.1453
891.00,0.1452
890.00,0.1448
889.00,0.1441
888.00,0.1429
887.00,0.1412
886.00,0.1387
885.00,0.1358
884.00,0.1324
883.00,0.1288
882.00,0.1252
881.00,0.1219
880.00,0.1192
879.00,0.1175
878.00,0.1166
877.00,0.1165
876.00,0.1169
875.00,0.1174
874.00,0.1177
873.00,0.1176
872.00,0.1173
871.00,0.1166
870.00,0.1158
869.00,0.1149
868.00,0.1141
867.00,0.1135
866.00,0.1132
865.00,0.1133
864.00,0.1138
863.00,0.1147
862.00,0.1160
861.00,0.1177
860.00,0.1198
859.00,0.1223
858.00,0.1252
857.00,0.1286
856.00,0.1325
855.00,0.1368
854.00,0.1414
853.00,0.1462
852.00,0.1510
851.00,0.1557
850.00,0.1600
849.00,0.1638
848.00,0.1671
847.00,0.1695
846.00,0.1709
845.00,0.1712
844.00,0.1702
843.00,0.1681
842.00,0.1648
841.00,0.1608
840.00,0.1562
839.00,0.1512
838.00,0.1460
837.00,0.1409
836.00,0.1362
835.00,0.1318
834.00,0.1279
833.00,0.1246
832.00,0.1217
831.00,0.1194
830.00,0.1174
829.00,0.1157
828.00,0.1143
827.00,0.1131
826.00,0.1121
825.00,0.1114
824.00,0.1109
823.00,0.1106
822.00,0.1103
821.00,0.1102
820.00,0.1102
819.00,0.1103
818.00,0.1104
817.00,0.1106
816.00,0.1110
815.00,0.1115
814.00,0.1121
813.00,0.1131
812.00,0.1144
811.00,0.1157
810.00,0.1172
809.00,0.1186
808.00,0.1201
807.00,0.1216
806.00,0.1231
805.00,0.1246
804.00,0.1260
803.00,0.1273
802.00,0.1283
801.00,0.1290
800.00,0.1295
799.00,0.1297
798.00,0.1296
797.00,0.1293
796.00,0.1288
795.00,0.1282
794.00,0.1276
793.00,0.1269
792.00,0.1263
791.00,0.1257
790.00,0.1253
789.00,0.1250
788.00,0.1247
787.00,0.1245
786.00,0.1244
785.00,0.1244
784.00,0.1248
783.00,0.1253
782.00,0.1261
781.00,0.1270
780.00,0.1282
779.00,0.1296
778.00,0.1310
777.00,0.1326
776.00,0.1341
775.00,0.1354
774.00,0.1364
773.00,0.1370
772.00,0.1370
771.00,0.1366
770.00,0.1359
769.00,0.1351
768.00,0.1345
767.00,0.1338
766.00,0.1334
765.00,0.1331
764.00,0.1332
763.00,0.1334
762.00,0.1338
761.00,0.1342
760.00,0.1347
759.00,0.1354
758.00,0.1361
757.00,0.1370
756.00,0.1381
755.00,0.1395
754.00,0.1412
753.00,0.1432
752.00,0.1456
751.00,0.1483
750.00,0.1513
749.00,0.1545
748.00,0.1577
747.00,0.1609
746.00,0.1639
745.00,0.1665
744.00,0.1689
743.00,0.1709
742.00,0.1727
741.00,0.1746
740.00,0.1765
739.00,0.1785
738.00,0.1804
737.00,0.1820
736.00,0.1833
735.00,0.1842
734.00,0.1848
733.00,0.1854
732.00,0.1859
731.00,0.1864
730.00,0.1871
729.00,0.1880
728.00,0.1890
727.00,0.1902
726.00,0.1912
725.00,0.1920
724.00,0.1925
723.00,0.1926
722.00,0.1923
721.00,0.1918
720.00,0.1911
719.00,0.1904
718.00,0.1898
717.00,0.1897
716.00,0.1901
715.00,0.1908
714.00,0.1919
713.00,0.1934
712.00,0.1954
711.00,0.1976
710.00,0.2002
709.00,0.2029
708.00,0.2059
707.00,0.2089
706.00,0.2117
705.00,0.2140
704.00,0.2160
703.00,0.2174
702.00,0.2183
701.00,0.2187
700.00,0.2186
699.00,0.2179
698.00,0.2169
697.00,0.2155
696.00,0.2140
695.00,0.2123
694.00,0.2104
693.00,0.2084
692.00,0.2063
691.00,0.2044
690.00,0.2026
689.00,0.2011
688.00,0.1999
687.00,0.1988
686.00,0.1978
685.00,0.1969
684.00,0.1961
683.00,0.1954
682.00,0.1950
681.00,0.1948
680.00,0.1947
679.00,0.1948
678.00,0.1950
677.00,0.1954
676.00,0.1960
675.00,0.1966
674.00,0.1972
673.00,0.1979
672.00,0.1984
671.00,0.1986
670.00,0.1985
669.00,0.1989
668.00,0.2004
667.00,0.2024
666.00,0.2035
665.00,0.2038
664.00,0.2037
663.00,0.2036
662.00,0.2035
661.00,0.2034
660.00,0.2033
659.00,0.2033
658.00,0.2033
657.00,0.2035
656.00,0.2037
655.00,0.2040
654.00,0.2043
653.00,0.2047
652.00,0.2051
651.00,0.2055
650.00,0.2058
649.00,0.2060
648.00,0.2062
647.00,0.2065
646.00,0.2067
645.00,0.2069
644.00,0.2074
643.00,0.2079
642.00,0.2084
641.00,0.2088
640.00,0.2093
639.00,0.2096
638.00,0.2101
637.00,0.2109
636.00,0.2120
635.00,0.2131
634.00,0.2141
633.00,0.2151
632.00,0.2164
631.00,0.2178
630.00,0.2194
629.00,0.2212
628.00,0.2232
627.00,0.2255
626.00,0.2278
625.00,0.2304
624.00,0.2330
623.00,0.2354
622.00,0.2374
621.00,0.2389
620.00,0.2402
619.00,0.2413
618.00,0.2425
617.00,0.2439
616.00,0.2457
615.00,0.2476
614.00,0.2493
613.00,0.2510
612.00,0.2528
611.00,0.2546
610.00,0.2564
609.00,0.2581
608.00,0.2599
607.00,0.2615
606.00,0.2627
605.00,0.2635
604.00,0.2642
603.00,0.2646
602.00,0.2649
601.00,0.2651
600.00,0.2652
599.00,0.2653
598.00,0.2654
597.00,0.2658
596.00,0.2665
595.00,0.2672
594.00,0.2679
593.00,0.2688
592.00,0.2701
591.00,0.2717
590.00,0.2732
589.00,0.2748
588.00,0.2765
587.00,0.2781
586.00,0.2796
585.00,0.2812
584.00,0.2831
583.00,0.2852
582.00,0.2873
581.00,0.2893
580.00,0.2914
579.00,0.2933
578.00,0.2948
577.00,0.2962
576.00,0.2977
575.00,0.2991
574.00,0.3001
573.00,0.3010
572.00,0.3018
571.00,0.3026
570.00,0.3032
569.00,0.3038
568.00,0.3047
567.00,0.3056
566.00,0.3065
565.00,0.3073
564.00,0.3084
563.00,0.3094
562.00,0.3100
561.00,0.3105
560.00,0.3110
559.00,0.3114
558.00,0.3116
557.00,0.3116
556.00,0.3118
555.00,0.3121
554.00,0.3125
553.00,0.3132
552.00,0.3140
551.00,0.3144
550.00,0.3145
549.00,0.3146
548.00,0.3153
547.00,0.3163
546.00,0.3175
545.00,0.3191
544.00,0.3211
543.00,0.3229
542.00,0.3238
541.00,0.3242
540.00,0.3243
539.00,0.3240
538.00,0.3233
537.00,0.3225
536.00,0.3220
535.00,0.3214
534.00,0.3205
533.00,0.3195
532.00,0.3190
531.00,0.3188
530.00,0.3186
529.00,0.3182
528.00,0.3179
527.00,0.3176
526.00,0.3173
525.00,0.3172
524.00,0.3173
523.00,0.3176
522.00,0.3181
521.00,0.3192
520.00,0.3208
519.00,0.3225
518.00,0.3235
517.00,0.3241
516.00,0.3245
515.00,0.3244
514.00,0.3235
513.00,0.3226
512.00,0.3223
511.00,0.3225
510.00,0.3226
509.00,0.3224
508.00,0.3224
507.00,0.3224
506.00,0.3226
505.00,0.3232
504.00,0.3240
503.00,0.3245
502.00,0.3242
501.00,0.3235
500.00,0.3230
499.00,0.3230
498.00,0.3234
497.00,0.3241
496.00,0.3251
495.00,0.3260
494.00,0.3266
493.00,0.3271
492.00,0.3276
491.00,0.3281
490.00,0.3282
489.00,0.3283
488.00,0.3284
487.00,0.3285
486.00,0.3287
485.00,0.3293
484.00,0.3303
483.00,0.3310
482.00,0.3311
481.00,0.3311
480.00,0.3317
479.00,0.3324
478.00,0.3327
477.00,0.3329
476.00,0.3333
475.00,0.3336
474.00,0.3335
473.00,0.3340
472.00,0.3354
471.00,0.3368
470.00,0.3373
469.00,0.3375
468.00,0.3383
467.00,0.3394
466.00,0.3397
465.00,0.3394
464.00,0.3391
463.00,0.3389
462.00,0.3385
461.00,0.3380
460.00,0.3379
459.00,0.3378
458.00,0.3374
457.00,0.3373
456.00,0.3380
455.00,0.3386
454.00,0.3389
453.00,0.3394
452.00,0.3411
451.00,0.3428
450.00,0.3438
