Created as New Dataset,Sample 001 By Administrator Date Friday, May 30 2025
cm-1,A
4000.00,0.0074
3999.00,0.0074
3998.00,0.0074
3997.00,0.0074
3996.00,0.0074
3995.00,0.0074
3994.00,0.0074
3993.00,0.0074
3992.00,0.0074
3991.00,0.0074
3990.00,0.0074
3989.00,0.0074
3988.00,0.0074
3987.00,0.0074
3986.00,0.0074
3985.00,0.0074
3984.00,0.0074
3983.00,0.0074
3982.00,0.0074
3981.00,0.0074
3980.00,0.0074
3979.00,0.0074
3978.00,0.0075
3977.00,0.0075
3976.00,0.0075
3975.00,0.0075
3974.00,0.0074
3973.00,0.0074
3972.00,0.0074
3971.00,0.0074
3970.00,0.0074
3969.00,0.0074
3968.00,0.0074
3967.00,0.0075
3966.00,0.0075
3965.00,0.0075
3964.00,0.0075
3963.00,0.0075
3962.00,0.0075
3961.00,0.0075
3960.00,0.0074
3959.00,0.0074
3958.00,0.0074
3957.00,0.0074
3956.00,0.0074
3955.00,0.0074
3954.00,0.0075
3953.00,0.0075
3952.00,0.0075
3951.00,0.0075
3950.00,0.0075
3949.00,0.0075
3948.00,0.0075
3947.00,0.0075
3946.00,0.0075
3945.00,0.0076
3944.00,0.0076
3943.00,0.0076
3942.00,0.0076
3941.00,0.0076
3940.00,0.0075
3939.00,0.0075
3938.00,0.0075
3937.00,0.0075
3936.00,0.0075
3935.00,0.0075
3934.00,0.0075
3933.00,0.0075
3932.00,0.0075
3931.00,0.0075
3930.00,0.0075
3929.00,0.0075
3928.00,0.0075
3927.00,0.0075
3926.00,0.0075
3925.00,0.0075
3924.00,0.0075
3923.00,0.0075
3922.00,0.0075
3921.00,0.0075
3920.00,0.0075
3919.00,0.0075
3918.00,0.0075
3917.00,0.0076
3916.00,0.0075
3915.00,0.0075
3914.00,0.0075
3913.00,0.0075
3912.00,0.0075
3911.00,0.0075
3910.00,0.0076
3909.00,0.0076
3908.00,0.0076
3907.00,0.0077
3906.00,0.0077
3905.00,0.0077
3904.00,0.0077
3903.00,0.0077
3902.00,0.0077
3901.00,0.0077
3900.00,0.0077
3899.00,0.0076
3898.00,0.0075
3897.00,0.0075
3896.00,0.0075
3895.00,0.0076
3894.00,0.0076
3893.00,0.0076
3892.00,0.0076
3891.00,0.0076
3890.00,0.0076
3889.00,0.0076
3888.00,0.0076
3887.00,0.0076
3886.00,0.0076
3885.00,0.0077
3884.00,0.0077
3883.00,0.0078
3882.00,0.0078
3881.00,0.0077
3880.00,0.0076
3879.00,0.0076
3878.00,0.0077
3877.00,0.0077
3876.00,0.0077
3875.00,0.0077
3874.00,0.0077
3873.00,0.0078
3872.00,0.0078
3871.00,0.0077
3870.00,0.0077
3869.00,0.0077
3868.00,0.0077
3867.00,0.0077
3866.00,0.0077
3865.00,0.0077
3864.00,0.0076
3863.00,0.0076
3862.00,0.0077
3861.00,0.0077
3860.00,0.0077
3859.00,0.0077
3858.00,0.0078
3857.00,0.0078
3856.00,0.0079
3855.00,0.0078
3854.00,0.0078
3853.00,0.0077
3852.00,0.0078
3851.00,0.0078
3850.00,0.0077
3849.00,0.0076
3848.00,0.0076
3847.00,0.0076
3846.00,0.0077
3845.00,0.0077
3844.00,0.0077
3843.00,0.0077
3842.00,0.0077
3841.00,0.0077
3840.00,0.0076
3839.00,0.0077
3838.00,0.0077
3837.00,0.0078
3836.00,0.0079
3835.00,0.0079
3834.00,0.0079
3833.00,0.0079
3832.00,0.0079
3831.00,0.0079
3830.00,0.0078
3829.00,0.0078
3828.00,0.0078
3827.00,0.0077
3826.00,0.0078
3825.00,0.0079
3824.00,0.0080
3823.00,0.0080
3822.00,0.0079
3821.00,0.0079
3820.00,0.0079
3819.00,0.0080
3818.00,0.0080
3817.00,0.0079
3816.00,0.0078
3815.00,0.0078
3814.00,0.0079
3813.00,0.0079
3812.00,0.0079
3811.00,0.0079
3810.00,0.0079
3809.00,0.0079
3808.00,0.0079
3807.00,0.0079
3806.00,0.0079
3805.00,0.0079
3804.00,0.0080
3803.00,0.0079
3802.00,0.0079
3801.00,0.0079
3800.00,0.0080
3799.00,0.0081
3798.00,0.0081
3797.00,0.0081
3796.00,0.0081
3795.00,0.0081
3794.00,0.0081
3793.00,0.0081
3792.00,0.0081
3791.00,0.0080
3790.00,0.0080
3789.00,0.0081
3788.00,0.0081
3787.00,0.0081
3786.00,0.0082
3785.00,0.0082
3784.00,0.0083
3783.00,0.0084
3782.00,0.0084
3781.00,0.0084
3780.00,0.0084
3779.00,0.0083
3778.00,0.0083
3777.00,0.0083
3776.00,0.0083
3775.00,0.0083
3774.00,0.0084
3773.00,0.0084
3772.00,0.0085
3771.00,0.0085
3770.00,0.0086
3769.00,0.0086
3768.00,0.0086
3767.00,0.0086
3766.00,0.0086
3765.00,0.0086
3764.00,0.0087
3763.00,0.0087
3762.00,0.0088
3761.00,0.0089
3760.00,0.0089
3759.00,0.0089
3758.00,0.0089
3757.00,0.0089
3756.00,0.0089
3755.00,0.0089
3754.00,0.0089
3753.00,0.0089
3752.00,0.0089
3751.00,0.0090
3750.00,0.0090
3749.00,0.0090
3748.00,0.0091
3747.00,0.0092
3746.00,0.0092
3745.00,0.0092
3744.00,0.0092
3743.00,0.0092
3742.00,0.0092
3741.00,0.0092
3740.00,0.0092
3739.00,0.0092
3738.00,0.0092
3737.00,0.0093
3736.00,0.0093
3735.00,0.0094
3734.00,0.0095
3733.00,0.0095
3732.00,0.0096
3731.00,0.0096
3730.00,0.0097
3729.00,0.0097
3728.00,0.0097
3727.00,0.0097
3726.00,0.0097
3725.00,0.0097
3724.00,0.0098
3723.00,0.0099
3722.00,0.0099
3721.00,0.0100
3720.00,0.0101
3719.00,0.0102
3718.00,0.0102
3717.00,0.0103
3716.00,0.0104
3715.00,0.0104
3714.00,0.0105
3713.00,0.0106
3712.00,0.0107
3711.00,0.0109
3710.00,0.0110
3709.00,0.0111
3708.00,0.0111
3707.00,0.0111
3706.00,0.0111
3705.00,0.0112
3704.00,0.0113
3703.00,0.0115
3702.00,0.0116
3701.00,0.0118
3700.00,0.0119
3699.00,0.0121
3698.00,0.0122
3697.00,0.0123
3696.00,0.0124
3695.00,0.0126
3694.00,0.0127
3693.00,0.0129
3692.00,0.0131
3691.00,0.0133
3690.00,0.0135
3689.00,0.0137
3688.00,0.0139
3687.00,0.0141
3686.00,0.0143
3685.00,0.0144
3684.00,0.0146
3683.00,0.0149
3682.00,0.0151
3681.00,0.0154
3680.00,0.0156
3679.00,0.0159
3678.00,0.0162
3677.00,0.0165
3676.00,0.0169
3675.00,0.0173
3674.00,0.0176
3673.00,0.0180
3672.00,0.0183
3671.00,0.0187
3670.00,0.0190
3669.00,0.0194
3668.00,0.0199
3667.00,0.0203
3666.00,0.0207
3665.00,0.0210
3664.00,0.0215
3663.00,0.0219
3662.00,0.0223
3661.00,0.0228
3660.00,0.0233
3659.00,0.0238
3658.00,0.0243
3657.00,0.0248
3656.00,0.0254
3655.00,0.0260
3654.00,0.0266
3653.00,0.0272
3652.00,0.0278
3651.00,0.0285
3650.00,0.0292
3649.00,0.0299
3648.00,0.0306
3647.00,0.0313
3646.00,0.0318
3645.00,0.0323
3644.00,0.0328
3643.00,0.0334
3642.00,0.0341
3641.00,0.0347
3640.00,0.0354
3639.00,0.0360
3638.00,0.0367
3637.00,0.0374
3636.00,0.0381
3635.00,0.0388
3634.00,0.0395
3633.00,0.0402
3632.00,0.0409
3631.00,0.0416
3630.00,0.0424
3629.00,0.0432
3628.00,0.0440
3627.00,0.0447
3626.00,0.0454
3625.00,0.0461
3624.00,0.0469
3623.00,0.0476
3622.00,0.0484
3621.00,0.0491
3620.00,0.0498
3619.00,0.0505
3618.00,0.0512
3617.00,0.0520
3616.00,0.0527
3615.00,0.0534
3614.00,0.0541
3613.00,0.0549
3612.00,0.0557
3611.00,0.0565
3610.00,0.0573
3609.00,0.0581
3608.00,0.0588
3607.00,0.0596
3606.00,0.0604
3605.00,0.0612
3604.00,0.0619
3603.00,0.0626
3602.00,0.0633
3601.00,0.0640
3600.00,0.0647
3599.00,0.0655
3598.00,0.0663
3597.00,0.0670
3596.00,0.0678
3595.00,0.0686
3594.00,0.0693
3593.00,0.0701
3592.00,0.0709
3591.00,0.0716
3590.00,0.0723
3589.00,0.0731
3588.00,0.0739
3587.00,0.0747
3586.00,0.0755
3585.00,0.0763
3584.00,0.0771
3583.00,0.0778
3582.00,0.0785
3581.00,0.0793
3580.00,0.0800
3579.00,0.0808
3578.00,0.0816
3577.00,0.0824
3576.00,0.0831
3575.00,0.0839
3574.00,0.0846
3573.00,0.0854
3572.00,0.0862
3571.00,0.0870
3570.00,0.0877
3569.00,0.0885
3568.00,0.0892
3567.00,0.0900
3566.00,0.0908
3565.00,0.0917
3564.00,0.0926
3563.00,0.0934
3562.00,0.0942
3561.00,0.0950
3560.00,0.0957
3559.00,0.0964
3558.00,0.0972
3557.00,0.0979
3556.00,0.0987
3555.00,0.0994
3554.00,0.1001
3553.00,0.1008
3552.00,0.1016
3551.00,0.1024
3550.00,0.1032
3549.00,0.1041
3548.00,0.1049
3547.00,0.1057
3546.00,0.1064
3545.00,0.1072
3544.00,0.1080
3543.00,0.1087
3542.00,0.1095
3541.00,0.1103
3540.00,0.1111
3539.00,0.1119
3538.00,0.1126
3537.00,0.1134
3536.00,0.1141
3535.00,0.1148
3534.00,0.1155
3533.00,0.1163
3532.00,0.1171
3531.00,0.1178
3530.00,0.1185
3529.00,0.1193
3528.00,0.1200
3527.00,0.1209
3526.00,0.1217
3525.00,0.1225
3524.00,0.1233
3523.00,0.1240
3522.00,0.1247
3521.00,0.1255
3520.00,0.1262
3519.00,0.1270
3518.00,0.1277
3517.00,0.1285
3516.00,0.1292
3515.00,0.1300
3514.00,0.1307
3513.00,0.1315
3512.00,0.1322
3511.00,0.1330
3510.00,0.1337
3509.00,0.1344
3508.00,0.1352
3507.00,0.1360
3506.00,0.1368
3505.00,0.1375
3504.00,0.1383
3503.00,0.1390
3502.00,0.1397
3501.00,0.1405
3500.00,0.1413
3499.00,0.1421
3498.00,0.1428
3497.00,0.1436
3496.00,0.1442
3495.00,0.1449
3494.00,0.1456
3493.00,0.1463
3492.00,0.1470
3491.00,0.1478
3490.00,0.1485
3489.00,0.1492
3488.00,0.1498
3487.00,0.1505
3486.00,0.1512
3485.00,0.1519
3484.00,0.1527
3483.00,0.1534
3482.00,0.1542
3481.00,0.1549
3480.00,0.1556
3479.00,0.1563
3478.00,0.1570
3477.00,0.1577
3476.00,0.1584
3475.00,0.1590
3474.00,0.1597
3473.00,0.1605
3472.00,0.1613
3471.00,0.1620
3470.00,0.1628
3469.00,0.1635
3468.00,0.1642
3467.00,0.1648
3466.00,0.1654
3465.00,0.1660
3464.00,0.1666
3463.00,0.1672
3462.00,0.1678
3461.00,0.1685
3460.00,0.1691
3459.00,0.1697
3458.00,0.1703
3457.00,0.1709
3456.00,0.1715
3455.00,0.1722
3454.00,0.1728
3453.00,0.1734
3452.00,0.1740
3451.00,0.1746
3450.00,0.1753
3449.00,0.1759
3448.00,0.1764
3447.00,0.1770
3446.00,0.1776
3445.00,0.1782
3444.00,0.1788
3443.00,0.1794
3442.00,0.1799
3441.00,0.1805
3440.00,0.1811
3439.00,0.1817
3438.00,0.1823
3437.00,0.1829
3436.00,0.1834
3435.00,0.1839
3434.00,0.1844
3433.00,0.1849
3432.00,0.1854
3431.00,0.1859
3430.00,0.1863
3429.00,0.1868
3428.00,0.1872
3427.00,0.1876
3426.00,0.1880
3425.00,0.1885
3424.00,0.1889
3423.00,0.1893
3422.00,0.1897
3421.00,0.1901
3420.00,0.1905
3419.00,0.1909
3418.00,0.1913
3417.00,0.1917
3416.00,0.1921
3415.00,0.1925
3414.00,0.1929
3413.00,0.1933
3412.00,0.1937
3411.00,0.1940
3410.00,0.1943
3409.00,0.1946
3408.00,0.1949
3407.00,0.1952
3406.00,0.1955
3405.00,0.1958
3404.00,0.1961
3403.00,0.1964
3402.00,0.1967
3401.00,0.1969
3400.00,0.1971
3399.00,0.1972
3398.00,0.1973
3397.00,0.1975
3396.00,0.1977
3395.00,0.1979
3394.00,0.1981
3393.00,0.1983
3392.00,0.1984
3391.00,0.1985
3390.00,0.1986
3389.00,0.1986
3388.00,0.1987
3387.00,0.1988
3386.00,0.1989
3385.00,0.1989
3384.00,0.1990
3383.00,0.1990
3382.00,0.1990
3381.00,0.1990
3380.00,0.1990
3379.00,0.1990
3378.00,0.1990
3377.00,0.1990
3376.00,0.1989
3375.00,0.1989
3374.00,0.1989
3373.00,0.1989
3372.00,0.1989
3371.00,0.1989
3370.00,0.1988
3369.00,0.1987
3368.00,0.1986
3367.00,0.1983
3366.00,0.1981
3365.00,0.1979
3364.00,0.1977
3363.00,0.1976
3362.00,0.1974
3361.00,0.1972
3360.00,0.1970
3359.00,0.1968
3358.00,0.1965
3357.00,0.1963
3356.00,0.1961
3355.00,0.1959
3354.00,0.1957
3353.00,0.1955
3352.00,0.1953
3351.00,0.1949
3350.00,0.1946
3349.00,0.1942
3348.00,0.1939
3347.00,0.1936
3346.00,0.1933
3345.00,0.1930
3344.00,0.1927
3343.00,0.1924
3342.00,0.1922
3341.00,0.1919
3340.00,0.1916
3339.00,0.1912
3338.00,0.1909
3337.00,0.1905
3336.00,0.1901
3335.00,0.1896
3334.00,0.1892
3333.00,0.1888
3332.00,0.1884
3331.00,0.1881
3330.00,0.1878
3329.00,0.1874
3328.00,0.1871
3327.00,0.1867
3326.00,0.1863
3325.00,0.1859
3324.00,0.1854
3323.00,0.1850
3322.00,0.1846
3321.00,0.1842
3320.00,0.1838
3319.00,0.1834
3318.00,0.1830
3317.00,0.1826
3316.00,0.1822
3315.00,0.1818
3314.00,0.1814
3313.00,0.1810
3312.00,0.1806
3311.00,0.1803
3310.00,0.1799
3309.00,0.1795
3308.00,0.1791
3307.00,0.1788
3306.00,0.1784
3305.00,0.1781
3304.00,0.1778
3303.00,0.1774
3302.00,0.1770
3301.00,0.1766
3300.00,0.1762
3299.00,0.1758
3298.00,0.1755
3297.00,0.1752
3296.00,0.1749
3295.00,0.1745
3294.00,0.1742
3293.00,0.1738
3292.00,0.1734
3291.00,0.1731
3290.00,0.1727
3289.00,0.1724
3288.00,0.1720
3287.00,0.1717
3286.00,0.1713
3285.00,0.1709
3284.00,0.1706
3283.00,0.1702
3282.00,0.1698
3281.00,0.1694
3280.00,0.1691
3279.00,0.1687
3278.00,0.1684
3277.00,0.1681
3276.00,0.1678
3275.00,0.1675
3274.00,0.1672
3273.00,0.1669
3272.00,0.1665
3271.00,0.1661
3270.00,0.1657
3269.00,0.1653
3268.00,0.1649
3267.00,0.1645
3266.00,0.1641
3265.00,0.1637
3264.00,0.1633
3263.00,0.1629
3262.00,0.1625
3261.00,0.1621
3260.00,0.1617
3259.00,0.1614
3258.00,0.1610
3257.00,0.1606
3256.00,0.1602
3255.00,0.1598
3254.00,0.1594
3253.00,0.1589
3252.00,0.1585
3251.00,0.1581
3250.00,0.1577
3249.00,0.1573
3248.00,0.1569
3247.00,0.1564
3246.00,0.1559
3245.00,0.1553
3244.00,0.1549
3243.00,0.1544
3242.00,0.1540
3241.00,0.1535
3240.00,0.1530
3239.00,0.1525
3238.00,0.1521
3237.00,0.1516
3236.00,0.1512
3235.00,0.1507
3234.00,0.1501
3233.00,0.1496
3232.00,0.1490
3231.00,0.1484
3230.00,0.1479
3229.00,0.1473
3228.00,0.1468
3227.00,0.1462
3226.00,0.1456
3225.00,0.1451
3224.00,0.1445
3223.00,0.1439
3222.00,0.1433
3221.00,0.1427
3220.00,0.1421
3219.00,0.1415
3218.00,0.1409
3217.00,0.1403
3216.00,0.1397
3215.00,0.1391
3214.00,0.1385
3213.00,0.1378
3212.00,0.1372
3211.00,0.1366
3210.00,0.1360
3209.00,0.1353
3208.00,0.1346
3207.00,0.1340
3206.00,0.1333
3205.00,0.1326
3204.00,0.1319
3203.00,0.1313
3202.00,0.1306
3201.00,0.1300
3200.00,0.1293
3199.00,0.1286
3198.00,0.1279
3197.00,0.1272
3196.00,0.1265
3195.00,0.1259
3194.00,0.1252
3193.00,0.1246
3192.00,0.1239
3191.00,0.1232
3190.00,0.1225
3189.00,0.1217
3188.00,0.1210
3187.00,0.1203
3186.00,0.1196
3185.00,0.1189
3184.00,0.1183
3183.00,0.1176
3182.00,0.1169
3181.00,0.1162
3180.00,0.1156
3179.00,0.1150
3178.00,0.1143
3177.00,0.1137
3176.00,0.1130
3175.00,0.1123
3174.00,0.1117
3173.00,0.1110
3172.00,0.1102
3171.00,0.1096
3170.00,0.1089
3169.00,0.1082
3168.00,0.1075
3167.00,0.1069
3166.00,0.1062
3165.00,0.1056
3164.00,0.1049
3163.00,0.1043
3162.00,0.1036
3161.00,0.1030
3160.00,0.1024
3159.00,0.1018
3158.00,0.1011
3157.00,0.1005
3156.00,0.0998
3155.00,0.0992
3154.00,0.0986
3153.00,0.0980
3152.00,0.0974
3151.00,0.0968
3150.00,0.0962
3149.00,0.0956
3148.00,0.0949
3147.00,0.0943
3146.00,0.0937
3145.00,0.0932
3144.00,0.0926
3143.00,0.0920
3142.00,0.0914
3141.00,0.0909
3140.00,0.0903
3139.00,0.0897
3138.00,0.0892
3137.00,0.0886
3136.00,0.0880
3135.00,0.0875
3134.00,0.0869
3133.00,0.0863
3132.00,0.0858
3131.00,0.0853
3130.00,0.0848
3129.00,0.0842
3128.00,0.0837
3127.00,0.0832
3126.00,0.0826
3125.00,0.0821
3124.00,0.0816
3123.00,0.0811
3122.00,0.0807
3121.00,0.0802
3120.00,0.0796
3119.00,0.0791
3118.00,0.0786
3117.00,0.0781
3116.00,0.0776
3115.00,0.0770
3114.00,0.0765
3113.00,0.0760
3112.00,0.0755
3111.00,0.0751
3110.00,0.0747
3109.00,0.0743
3108.00,0.0738
3107.00,0.0734
3106.00,0.0729
3105.00,0.0724
3104.00,0.0719
3103.00,0.0715
3102.00,0.0711
3101.00,0.0707
3100.00,0.0702
3099.00,0.0698
3098.00,0.0693
3097.00,0.0688
3096.00,0.0684
3095.00,0.0680
3094.00,0.0676
3093.00,0.0672
3092.00,0.0668
3091.00,0.0664
3090.00,0.0660
3089.00,0.0656
3088.00,0.0652
3087.00,0.0648
3086.00,0.0644
3085.00,0.0641
3084.00,0.0637
3083.00,0.0633
3082.00,0.0630
3081.00,0.0626
3080.00,0.0622
3079.00,0.0618
3078.00,0.0614
3077.00,0.0610
3076.00,0.0606
3075.00,0.0602
3074.00,0.0598
3073.00,0.0594
3072.00,0.0591
3071.00,0.0588
3070.00,0.0585
3069.00,0.0581
3068.00,0.0578
3067.00,0.0574
3066.00,0.0570
3065.00,0.0567
3064.00,0.0564
3063.00,0.0561
3062.00,0.0558
3061.00,0.0555
3060.00,0.0551
3059.00,0.0548
3058.00,0.0544
3057.00,0.0541
3056.00,0.0537
3055.00,0.0534
3054.00,0.0531
3053.00,0.0528
3052.00,0.0525
3051.00,0.0521
3050.00,0.0518
3049.00,0.0516
3048.00,0.0513
3047.00,0.0510
3046.00,0.0508
3045.00,0.0504
3044.00,0.0501
3043.00,0.0498
3042.00,0.0495
3041.00,0.0493
3040.00,0.0490
3039.00,0.0487
3038.00,0.0484
3037.00,0.0482
3036.00,0.0479
3035.00,0.0476
3034.00,0.0474
3033.00,0.0471
3032.00,0.0469
3031.00,0.0466
3030.00,0.0463
3029.00,0.0461
3028.00,0.0459
3027.00,0.0456
3026.00,0.0454
3025.00,0.0452
3024.00,0.0450
3023.00,0.0447
3022.00,0.0445
3021.00,0.0442
3020.00,0.0440
3019.00,0.0438
3018.00,0.0436
3017.00,0.0434
3016.00,0.0432
3015.00,0.0430
3014.00,0.0429
3013.00,0.0427
3012.00,0.0425
3011.00,0.0424
3010.00,0.0422
3009.00,0.0420
3008.00,0.0418
3007.00,0.0417
3006.00,0.0415
3005.00,0.0414
3004.00,0.0412
3003.00,0.0411
3002.00,0.0410
3001.00,0.0408
3000.00,0.0407
2999.00,0.0406
2998.00,0.0405
2997.00,0.0403
2996.00,0.0402
2995.00,0.0401
2994.00,0.0400
2993.00,0.0399
2992.00,0.0398
2991.00,0.0397
2990.00,0.0397
2989.00,0.0396
2988.00,0.0395
2987.00,0.0395
2986.00,0.0394
2985.00,0.0394
2984.00,0.0394
2983.00,0.0393
2982.00,0.0393
2981.00,0.0393
2980.00,0.0392
2979.00,0.0392
2978.00,0.0392
2977.00,0.0392
2976.00,0.0392
2975.00,0.0392
2974.00,0.0393
2973.00,0.0393
2972.00,0.0393
2971.00,0.0393
2970.00,0.0393
2969.00,0.0394
2968.00,0.0394
2967.00,0.0395
2966.00,0.0395
2965.00,0.0396
2964.00,0.0396
2963.00,0.0397
2962.00,0.0397
2961.00,0.0398
2960.00,0.0399
2959.00,0.0400
2958.00,0.0400
2957.00,0.0400
2956.00,0.0400
2955.00,0.0399
2954.00,0.0398
2953.00,0.0397
2952.00,0.0396
2951.00,0.0395
2950.00,0.0394
2949.00,0.0393
2948.00,0.0393
2947.00,0.0393
2946.00,0.0394
2945.00,0.0394
2944.00,0.0395
2943.00,0.0395
2942.00,0.0397
2941.00,0.0398
2940.00,0.0399
2939.00,0.0401
2938.00,0.0402
2937.00,0.0404
2936.00,0.0406
2935.00,0.0409
2934.00,0.0411
2933.00,0.0414
2932.00,0.0416
2931.00,0.0419
2930.00,0.0422
2929.00,0.0425
2928.00,0.0429
2927.00,0.0433
2926.00,0.0437
2925.00,0.0442
2924.00,0.0447
2923.00,0.0452
2922.00,0.0457
2921.00,0.0462
2920.00,0.0465
2919.00,0.0466
2918.00,0.0464
2917.00,0.0460
2916.00,0.0454
2915.00,0.0446
2914.00,0.0436
2913.00,0.0427
2912.00,0.0417
2911.00,0.0409
2910.00,0.0401
2909.00,0.0395
2908.00,0.0389
2907.00,0.0385
2906.00,0.0380
2905.00,0.0377
2904.00,0.0373
2903.00,0.0370
2902.00,0.0367
2901.00,0.0364
2900.00,0.0361
2899.00,0.0359
2898.00,0.0356
2897.00,0.0353
2896.00,0.0350
2895.00,0.0348
2894.00,0.0345
2893.00,0.0342
2892.00,0.0339
2891.00,0.0336
2890.00,0.0333
2889.00,0.0331
2888.00,0.0329
2887.00,0.0326
2886.00,0.0324
2885.00,0.0322
2884.00,0.0320
2883.00,0.0317
2882.00,0.0315
2881.00,0.0313
2880.00,0.0312
2879.00,0.0310
2878.00,0.0309
2877.00,0.0307
2876.00,0.0306
2875.00,0.0305
2874.00,0.0303
2873.00,0.0301
2872.00,0.0300
2871.00,0.0298
2870.00,0.0296
2869.00,0.0294
2868.00,0.0292
2867.00,0.0291
2866.00,0.0290
2865.00,0.0289
2864.00,0.0288
2863.00,0.0287
2862.00,0.0287
2861.00,0.0288
2860.00,0.0289
2859.00,0.0291
2858.00,0.0293
2857.00,0.0296
2856.00,0.0300
2855.00,0.0304
2854.00,0.0309
2853.00,0.0315
2852.00,0.0319
2851.00,0.0322
2850.00,0.0322
2849.00,0.0318
2848.00,0.0312
2847.00,0.0303
2846.00,0.0293
2845.00,0.0283
2844.00,0.0273
2843.00,0.0265
2842.00,0.0258
2841.00,0.0253
2840.00,0.0248
2839.00,0.0245
2838.00,0.0242
2837.00,0.0239
2836.00,0.0236
2835.00,0.0234
2834.00,0.0232
2833.00,0.0230
2832.00,0.0229
2831.00,0.0228
2830.00,0.0226
2829.00,0.0225
2828.00,0.0223
2827.00,0.0222
2826.00,0.0220
2825.00,0.0219
2824.00,0.0218
2823.00,0.0216
2822.00,0.0215
2821.00,0.0214
2820.00,0.0213
2819.00,0.0211
2818.00,0.0210
2817.00,0.0209
2816.00,0.0208
2815.00,0.0207
2814.00,0.0206
2813.00,0.0206
2812.00,0.0205
2811.00,0.0203
2810.00,0.0202
2809.00,0.0201
2808.00,0.0200
2807.00,0.0199
2806.00,0.0198
2805.00,0.0198
2804.00,0.0197
2803.00,0.0196
2802.00,0.0196
2801.00,0.0195
2800.00,0.0194
2799.00,0.0193
2798.00,0.0192
2797.00,0.0191
2796.00,0.0191
2795.00,0.0190
2794.00,0.0189
2793.00,0.0189
2792.00,0.0188
2791.00,0.0187
2790.00,0.0186
2789.00,0.0185
2788.00,0.0185
2787.00,0.0184
2786.00,0.0184
2785.00,0.0183
2784.00,0.0183
2783.00,0.0182
2782.00,0.0181
2781.00,0.0180
2780.00,0.0180
2779.00,0.0179
2778.00,0.0178
2777.00,0.0178
2776.00,0.0177
2775.00,0.0176
2774.00,0.0176
2773.00,0.0175
2772.00,0.0175
2771.00,0.0174
2770.00,0.0173
2769.00,0.0173
2768.00,0.0172
2767.00,0.0172
2766.00,0.0172
2765.00,0.0171
2764.00,0.0170
2763.00,0.0170
2762.00,0.0169
2761.00,0.0168
2760.00,0.0168
2759.00,0.0168
2758.00,0.0167
2757.00,0.0167
2756.00,0.0167
2755.00,0.0166
2754.00,0.0166
2753.00,0.0166
2752.00,0.0165
2751.00,0.0165
2750.00,0.0164
2749.00,0.0163
2748.00,0.0163
2747.00,0.0163
2746.00,0.0162
2745.00,0.0162
2744.00,0.0162
2743.00,0.0161
2742.00,0.0161
2741.00,0.0160
2740.00,0.0159
2739.00,0.0159
2738.00,0.0159
2737.00,0.0159
2736.00,0.0158
2735.00,0.0158
2734.00,0.0158
2733.00,0.0158
2732.00,0.0157
2731.00,0.0157
2730.00,0.0157
2729.00,0.0156
2728.00,0.0155
2727.00,0.0155
2726.00,0.0154
2725.00,0.0153
2724.00,0.0153
2723.00,0.0152
2722.00,0.0152
2721.00,0.0152
2720.00,0.0152
2719.00,0.0152
2718.00,0.0152
2717.00,0.0151
2716.00,0.0151
2715.00,0.0150
2714.00,0.0149
2713.00,0.0149
2712.00,0.0149
2711.00,0.0148
2710.00,0.0148
2709.00,0.0148
2708.00,0.0147
2707.00,0.0147
2706.00,0.0146
2705.00,0.0146
2704.00,0.0146
2703.00,0.0146
2702.00,0.0145
2701.00,0.0145
2700.00,0.0145
2699.00,0.0144
2698.00,0.0143
2697.00,0.0143
2696.00,0.0143
2695.00,0.0143
2694.00,0.0142
2693.00,0.0142
2692.00,0.0141
2691.00,0.0141
2690.00,0.0141
2689.00,0.0140
2688.00,0.0140
2687.00,0.0140
2686.00,0.0140
2685.00,0.0139
2684.00,0.0139
2683.00,0.0139
2682.00,0.0138
2681.00,0.0138
2680.00,0.0138
2679.00,0.0138
2678.00,0.0138
2677.00,0.0137
2676.00,0.0137
2675.00,0.0136
2674.00,0.0136
2673.00,0.0136
2672.00,0.0136
2671.00,0.0135
2670.00,0.0135
2669.00,0.0135
2668.00,0.0135
2667.00,0.0135
2666.00,0.0135
2665.00,0.0135
2664.00,0.0135
2663.00,0.0136
2662.00,0.0136
2661.00,0.0137
2660.00,0.0137
2659.00,0.0136
2658.00,0.0136
2657.00,0.0136
2656.00,0.0136
2655.00,0.0136
2654.00,0.0136
2653.00,0.0136
2652.00,0.0135
2651.00,0.0135
2650.00,0.0134
2649.00,0.0134
2648.00,0.0133
2647.00,0.0133
2646.00,0.0133
2645.00,0.0132
2644.00,0.0132
2643.00,0.0131
2642.00,0.0131
2641.00,0.0130
2640.00,0.0130
2639.00,0.0129
2638.00,0.0129
2637.00,0.0128
2636.00,0.0128
2635.00,0.0128
2634.00,0.0128
2633.00,0.0127
2632.00,0.0127
2631.00,0.0127
2630.00,0.0126
2629.00,0.0125
2628.00,0.0125
2627.00,0.0124
2626.00,0.0124
2625.00,0.0124
2624.00,0.0124
2623.00,0.0124
2622.00,0.0123
2621.00,0.0122
2620.00,0.0121
2619.00,0.0121
2618.00,0.0121
2617.00,0.0120
2616.00,0.0119
2615.00,0.0119
2614.00,0.0118
2613.00,0.0117
2612.00,0.0117
2611.00,0.0117
2610.00,0.0117
2609.00,0.0116
2608.00,0.0116
2607.00,0.0116
2606.00,0.0115
2605.00,0.0115
2604.00,0.0115
2603.00,0.0115
2602.00,0.0115
2601.00,0.0115
2600.00,0.0114
2599.00,0.0114
2598.00,0.0113
2597.00,0.0113
2596.00,0.0113
2595.00,0.0113
2594.00,0.0112
2593.00,0.0112
2592.00,0.0111
2591.00,0.0111
2590.00,0.0111
2589.00,0.0111
2588.00,0.0112
2587.00,0.0112
2586.00,0.0111
2585.00,0.0111
2584.00,0.0110
2583.00,0.0110
2582.00,0.0110
2581.00,0.0109
2580.00,0.0109
2579.00,0.0109
2578.00,0.0109
2577.00,0.0109
2576.00,0.0109
2575.00,0.0108
2574.00,0.0108
2573.00,0.0107
2572.00,0.0106
2571.00,0.0106
2570.00,0.0105
2569.00,0.0105
2568.00,0.0105
2567.00,0.0106
2566.00,0.0106
2565.00,0.0106
2564.00,0.0106
2563.00,0.0105
2562.00,0.0105
2561.00,0.0104
2560.00,0.0104
2559.00,0.0104
2558.00,0.0104
2557.00,0.0104
2556.00,0.0104
2555.00,0.0104
2554.00,0.0105
2553.00,0.0105
2552.00,0.0105
2551.00,0.0105
2550.00,0.0105
2549.00,0.0105
2548.00,0.0104
2547.00,0.0104
2546.00,0.0103
2545.00,0.0103
2544.00,0.0102
2543.00,0.0102
2542.00,0.0101
2541.00,0.0101
2540.00,0.0102
2539.00,0.0102
2538.00,0.0103
2537.00,0.0103
2536.00,0.0103
2535.00,0.0103
2534.00,0.0102
2533.00,0.0102
2532.00,0.0102
2531.00,0.0103
2530.00,0.0103
2529.00,0.0103
2528.00,0.0103
2527.00,0.0103
2526.00,0.0103
2525.00,0.0102
2524.00,0.0102
2523.00,0.0102
2522.00,0.0102
2521.00,0.0102
2520.00,0.0101
2519.00,0.0101
2518.00,0.0101
2517.00,0.0101
2516.00,0.0101
2515.00,0.0102
2514.00,0.0101
2513.00,0.0101
2512.00,0.0101
2511.00,0.0101
2510.00,0.0101
2509.00,0.0101
2508.00,0.0101
2507.00,0.0102
2506.00,0.0102
2505.00,0.0102
2504.00,0.0102
2503.00,0.0102
2502.00,0.0102
2501.00,0.0102
2500.00,0.0102
2499.00,0.0102
2498.00,0.0102
2497.00,0.0102
2496.00,0.0102
2495.00,0.0102
2494.00,0.0103
2493.00,0.0103
2492.00,0.0102
2491.00,0.0102
2490.00,0.0102
2489.00,0.0102
2488.00,0.0102
2487.00,0.0102
2486.00,0.0102
2485.00,0.0102
2484.00,0.0102
2483.00,0.0102
2482.00,0.0102
2481.00,0.0101
2480.00,0.0101
2479.00,0.0101
2478.00,0.0102
2477.00,0.0102
2476.00,0.0103
2475.00,0.0103
2474.00,0.0103
2473.00,0.0102
2472.00,0.0101
2471.00,0.0100
2470.00,0.0100
2469.00,0.0101
2468.00,0.0101
2467.00,0.0102
2466.00,0.0103
2465.00,0.0103
2464.00,0.0104
2463.00,0.0104
2462.00,0.0104
2461.00,0.0103
2460.00,0.0104
2459.00,0.0104
2458.00,0.0104
2457.00,0.0104
2456.00,0.0104
2455.00,0.0104
2454.00,0.0103
2453.00,0.0103
2452.00,0.0104
2451.00,0.0104
2450.00,0.0105
2449.00,0.0104
2448.00,0.0104
2447.00,0.0104
2446.00,0.0103
2445.00,0.0103
2444.00,0.0103
2443.00,0.0102
2442.00,0.0102
2441.00,0.0102
2440.00,0.0103
2439.00,0.0103
2438.00,0.0102
2437.00,0.0101
2436.00,0.0101
2435.00,0.0100
2434.00,0.0100
2433.00,0.0100
2432.00,0.0100
2431.00,0.0101
2430.00,0.0101
2429.00,0.0101
2428.00,0.0101
2427.00,0.0101
2426.00,0.0100
2425.00,0.0100
2424.00,0.0100
2423.00,0.0100
2422.00,0.0101
2421.00,0.0101
2420.00,0.0101
2419.00,0.0101
2418.00,0.0101
2417.00,0.0101
2416.00,0.0102
2415.00,0.0102
2414.00,0.0102
2413.00,0.0102
2412.00,0.0103
2411.00,0.0103
2410.00,0.0103
2409.00,0.0102
2408.00,0.0101
2407.00,0.0101
2406.00,0.0100
2405.00,0.0100
2404.00,0.0100
2403.00,0.0100
2402.00,0.0100
2401.00,0.0101
2400.00,0.0101
2399.00,0.0101
2398.00,0.0100
2397.00,0.0100
2396.00,0.0100
2395.00,0.0101
2394.00,0.0101
2393.00,0.0101
2392.00,0.0101
2391.00,0.0101
2390.00,0.0100
2389.00,0.0100
2388.00,0.0100
2387.00,0.0100
2386.00,0.0100
2385.00,0.0099
2384.00,0.0099
2383.00,0.0098
2382.00,0.0097
2381.00,0.0097
2380.00,0.0096
2379.00,0.0096
2378.00,0.0096
2377.00,0.0096
2376.00,0.0098
2375.00,0.0099
2374.00,0.0100
2373.00,0.0101
2372.00,0.0101
2371.00,0.0100
2370.00,0.0100
2369.00,0.0100
2368.00,0.0100
2367.00,0.0100
2366.00,0.0101
2365.00,0.0101
2364.00,0.0102
2363.00,0.0103
2362.00,0.0104
2361.00,0.0105
2360.00,0.0106
2359.00,0.0107
2358.00,0.0107
2357.00,0.0107
2356.00,0.0107
2355.00,0.0107
2354.00,0.0106
2353.00,0.0106
2352.00,0.0107
2351.00,0.0108
2350.00,0.0109
2349.00,0.0109
2348.00,0.0108
2347.00,0.0109
2346.00,0.0110
2345.00,0.0112
2344.00,0.0113
2343.00,0.0115
2342.00,0.0115
2341.00,0.0115
2340.00,0.0115
2339.00,0.0115
2338.00,0.0116
2337.00,0.0117
2336.00,0.0117
2335.00,0.0117
2334.00,0.0117
2333.00,0.0116
2332.00,0.0116
2331.00,0.0116
2330.00,0.0117
2329.00,0.0118
2328.00,0.0121
2327.00,0.0125
2326.00,0.0130
2325.00,0.0134
2324.00,0.0136
2323.00,0.0136
2322.00,0.0135
2321.00,0.0134
2320.00,0.0132
2319.00,0.0131
2318.00,0.0129
2317.00,0.0127
2316.00,0.0126
2315.00,0.0126
2314.00,0.0125
2313.00,0.0125
2312.00,0.0124
2311.00,0.0124
2310.00,0.0124
2309.00,0.0124
2308.00,0.0124
2307.00,0.0124
2306.00,0.0124
2305.00,0.0124
2304.00,0.0125
2303.00,0.0126
2302.00,0.0127
2301.00,0.0128
2300.00,0.0128
2299.00,0.0129
2298.00,0.0129
2297.00,0.0130
2296.00,0.0130
2295.00,0.0131
2294.00,0.0132
2293.00,0.0133
2292.00,0.0134
2291.00,0.0135
2290.00,0.0136
2289.00,0.0137
2288.00,0.0138
2287.00,0.0139
2286.00,0.0139
2285.00,0.0138
2284.00,0.0138
2283.00,0.0136
2282.00,0.0135
2281.00,0.0134
2280.00,0.0132
2279.00,0.0131
2278.00,0.0130
2277.00,0.0129
2276.00,0.0128
2275.00,0.0128
2274.00,0.0128
2273.00,0.0128
2272.00,0.0128
2271.00,0.0129
2270.00,0.0129
2269.00,0.0129
2268.00,0.0129
2267.00,0.0128
2266.00,0.0127
2265.00,0.0125
2264.00,0.0124
2263.00,0.0123
2262.00,0.0123
2261.00,0.0123
2260.00,0.0124
2259.00,0.0124
2258.00,0.0124
2257.00,0.0123
2256.00,0.0122
2255.00,0.0121
2254.00,0.0120
2253.00,0.0120
2252.00,0.0120
2251.00,0.0121
2250.00,0.0123
2249.00,0.0123
2248.00,0.0123
2247.00,0.0123
2246.00,0.0122
2245.00,0.0123
2244.00,0.0124
2243.00,0.0124
2242.00,0.0124
2241.00,0.0124
2240.00,0.0125
2239.00,0.0125
2238.00,0.0125
2237.00,0.0125
2236.00,0.0127
2235.00,0.0128
2234.00,0.0129
2233.00,0.0129
2232.00,0.0128
2231.00,0.0126
2230.00,0.0124
2229.00,0.0123
2228.00,0.0122
2227.00,0.0122
2226.00,0.0122
2225.00,0.0123
2224.00,0.0124
2223.00,0.0123
2222.00,0.0122
2221.00,0.0121
2220.00,0.0122
2219.00,0.0123
2218.00,0.0124
2217.00,0.0127
2216.00,0.0129
2215.00,0.0130
2214.00,0.0129
2213.00,0.0128
2212.00,0.0127
2211.00,0.0126
2210.00,0.0124
2209.00,0.0123
2208.00,0.0122
2207.00,0.0122
2206.00,0.0122
2205.00,0.0123
2204.00,0.0125
2203.00,0.0127
2202.00,0.0128
2201.00,0.0128
2200.00,0.0128
2199.00,0.0128
2198.00,0.0128
2197.00,0.0128
2196.00,0.0127
2195.00,0.0125
2194.00,0.0124
2193.00,0.0124
2192.00,0.0125
2191.00,0.0125
2190.00,0.0126
2189.00,0.0127
2188.00,0.0130
2187.00,0.0132
2186.00,0.0133
2185.00,0.0133
2184.00,0.0132
2183.00,0.0129
2182.00,0.0124
2181.00,0.0120
2180.00,0.0117
2179.00,0.0116
2178.00,0.0115
2177.00,0.0114
2176.00,0.0114
2175.00,0.0115
2174.00,0.0117
2173.00,0.0122
2172.00,0.0128
2171.00,0.0132
2170.00,0.0135
2169.00,0.0137
2168.00,0.0138
2167.00,0.0139
2166.00,0.0140
2165.00,0.0141
2164.00,0.0141
2163.00,0.0140
2162.00,0.0138
2161.00,0.0131
2160.00,0.0118
2159.00,0.0100
2158.00,0.0083
2157.00,0.0073
2156.00,0.0071
2155.00,0.0073
2154.00,0.0077
2153.00,0.0083
2152.00,0.0089
2151.00,0.0095
2150.00,0.0099
2149.00,0.0102
2148.00,0.0104
2147.00,0.0106
2146.00,0.0106
2145.00,0.0105
2144.00,0.0104
2143.00,0.0102
2142.00,0.0102
2141.00,0.0103
2140.00,0.0106
2139.00,0.0109
2138.00,0.0112
2137.00,0.0112
2136.00,0.0110
2135.00,0.0108
2134.00,0.0106
2133.00,0.0108
2132.00,0.0112
2131.00,0.0117
2130.00,0.0120
2129.00,0.0123
2128.00,0.0125
2127.00,0.0127
2126.00,0.0130
2125.00,0.0132
2124.00,0.0134
2123.00,0.0136
2122.00,0.0137
2121.00,0.0139
2120.00,0.0139
2119.00,0.0140
2118.00,0.0142
2117.00,0.0144
2116.00,0.0146
2115.00,0.0149
2114.00,0.0150
2113.00,0.0151
2112.00,0.0151
2111.00,0.0151
2110.00,0.0151
2109.00,0.0151
2108.00,0.0151
2107.00,0.0151
2106.00,0.0151
2105.00,0.0151
2104.00,0.0151
2103.00,0.0150
2102.00,0.0150
2101.00,0.0149
2100.00,0.0149
2099.00,0.0149
2098.00,0.0148
2097.00,0.0147
2096.00,0.0145
2095.00,0.0143
2094.00,0.0140
2093.00,0.0139
2092.00,0.0140
2091.00,0.0142
2090.00,0.0145
2089.00,0.0147
2088.00,0.0148
2087.00,0.0149
2086.00,0.0149
2085.00,0.0149
2084.00,0.0149
2083.00,0.0149
2082.00,0.0148
2081.00,0.0147
2080.00,0.0147
2079.00,0.0147
2078.00,0.0146
2077.00,0.0145
2076.00,0.0143
2075.00,0.0142
2074.00,0.0142
2073.00,0.0142
2072.00,0.0143
2071.00,0.0144
2070.00,0.0143
2069.00,0.0141
2068.00,0.0140
2067.00,0.0139
2066.00,0.0138
2065.00,0.0136
2064.00,0.0135
2063.00,0.0134
2062.00,0.0134
2061.00,0.0133
2060.00,0.0133
2059.00,0.0133
2058.00,0.0133
2057.00,0.0134
2056.00,0.0136
2055.00,0.0136
2054.00,0.0137
2053.00,0.0139
2052.00,0.0142
2051.00,0.0143
2050.00,0.0140
2049.00,0.0135
2048.00,0.0129
2047.00,0.0125
2046.00,0.0123
2045.00,0.0123
2044.00,0.0126
2043.00,0.0129
2042.00,0.0128
2041.00,0.0125
2040.00,0.0122
2039.00,0.0119
2038.00,0.0118
2037.00,0.0117
2036.00,0.0117
2035.00,0.0116
2034.00,0.0112
2033.00,0.0106
2032.00,0.0101
2031.00,0.0097
2030.00,0.0095
2029.00,0.0095
2028.00,0.0097
2027.00,0.0098
2026.00,0.0100
2025.00,0.0103
2024.00,0.0107
2023.00,0.0109
2022.00,0.0109
2021.00,0.0108
2020.00,0.0107
2019.00,0.0106
2018.00,0.0104
2017.00,0.0103
2016.00,0.0104
2015.00,0.0107
2014.00,0.0108
2013.00,0.0109
2012.00,0.0109
2011.00,0.0106
2010.00,0.0102
2009.00,0.0098
2008.00,0.0095
2007.00,0.0094
2006.00,0.0094
2005.00,0.0095
2004.00,0.0097
2003.00,0.0098
2002.00,0.0100
2001.00,0.0101
2000.00,0.0102
1999.00,0.0102
1998.00,0.0101
1997.00,0.0101
1996.00,0.0102
1995.00,0.0104
1994.00,0.0106
1993.00,0.0107
1992.00,0.0108
1991.00,0.0109
1990.00,0.0110
1989.00,0.0111
1988.00,0.0112
1987.00,0.0112
1986.00,0.0111
1985.00,0.0111
1984.00,0.0113
1983.00,0.0116
1982.00,0.0118
1981.00,0.0119
1980.00,0.0118
1979.00,0.0113
1978.00,0.0106
1977.00,0.0099
1976.00,0.0095
1975.00,0.0092
1974.00,0.0089
1973.00,0.0089
1972.00,0.0088
1971.00,0.0088
1970.00,0.0086
1969.00,0.0087
1968.00,0.0090
1967.00,0.0092
1966.00,0.0093
1965.00,0.0093
1964.00,0.0093
1963.00,0.0092
1962.00,0.0091
1961.00,0.0090
1960.00,0.0088
1959.00,0.0086
1958.00,0.0085
1957.00,0.0085
1956.00,0.0086
1955.00,0.0088
1954.00,0.0090
1953.00,0.0091
1952.00,0.0093
1951.00,0.0094
1950.00,0.0094
1949.00,0.0096
1948.00,0.0098
1947.00,0.0099
1946.00,0.0100
1945.00,0.0099
1944.00,0.0099
1943.00,0.0099
1942.00,0.0098
1941.00,0.0097
1940.00,0.0096
1939.00,0.0096
1938.00,0.0096
1937.00,0.0097
1936.00,0.0098
1935.00,0.0099
1934.00,0.0099
1933.00,0.0099
1932.00,0.0100
1931.00,0.0100
1930.00,0.0100
1929.00,0.0100
1928.00,0.0099
1927.00,0.0099
1926.00,0.0099
1925.00,0.0101
1924.00,0.0102
1923.00,0.0102
1922.00,0.0101
1921.00,0.0101
1920.00,0.0103
1919.00,0.0104
1918.00,0.0105
1917.00,0.0105
1916.00,0.0104
1915.00,0.0104
1914.00,0.0102
1913.00,0.0101
1912.00,0.0102
1911.00,0.0102
1910.00,0.0103
1909.00,0.0104
1908.00,0.0105
1907.00,0.0106
1906.00,0.0106
1905.00,0.0105
1904.00,0.0104
1903.00,0.0103
1902.00,0.0103
1901.00,0.0102
1900.00,0.0102
1899.00,0.0103
1898.00,0.0103
1897.00,0.0103
1896.00,0.0104
1895.00,0.0104
1894.00,0.0104
1893.00,0.0104
1892.00,0.0104
1891.00,0.0104
1890.00,0.0104
1889.00,0.0104
1888.00,0.0105
1887.00,0.0106
1886.00,0.0107
1885.00,0.0107
1884.00,0.0107
1883.00,0.0107
1882.00,0.0107
1881.00,0.0107
1880.00,0.0107
1879.00,0.0107
1878.00,0.0107
1877.00,0.0106
1876.00,0.0106
1875.00,0.0106
1874.00,0.0106
1873.00,0.0106
1872.00,0.0106
1871.00,0.0106
1870.00,0.0105
1869.00,0.0105
1868.00,0.0105
1867.00,0.0105
1866.00,0.0106
1865.00,0.0107
1864.00,0.0109
1863.00,0.0109
1862.00,0.0109
1861.00,0.0109
1860.00,0.0109
1859.00,0.0110
1858.00,0.0109
1857.00,0.0109
1856.00,0.0109
1855.00,0.0109
1854.00,0.0109
1853.00,0.0109
1852.00,0.0109
1851.00,0.0109
1850.00,0.0109
1849.00,0.0109
1848.00,0.0109
1847.00,0.0110
1846.00,0.0110
1845.00,0.0110
1844.00,0.0110
1843.00,0.0110
1842.00,0.0110
1841.00,0.0111
1840.00,0.0112
1839.00,0.0113
1838.00,0.0112
1837.00,0.0113
1836.00,0.0113
1835.00,0.0113
1834.00,0.0113
1833.00,0.0113
1832.00,0.0113
1831.00,0.0113
1830.00,0.0113
1829.00,0.0113
1828.00,0.0114
1827.00,0.0116
1826.00,0.0118
1825.00,0.0118
1824.00,0.0119
1823.00,0.0119
1822.00,0.0120
1821.00,0.0120
1820.00,0.0120
1819.00,0.0120
1818.00,0.0119
1817.00,0.0119
1816.00,0.0119
1815.00,0.0120
1814.00,0.0121
1813.00,0.0122
1812.00,0.0123
1811.00,0.0124
1810.00,0.0124
1809.00,0.0125
1808.00,0.0126
1807.00,0.0127
1806.00,0.0127
1805.00,0.0127
1804.00,0.0128
1803.00,0.0129
1802.00,0.0130
1801.00,0.0130
1800.00,0.0131
1799.00,0.0132
1798.00,0.0132
1797.00,0.0133
1796.00,0.0134
1795.00,0.0136
1794.00,0.0137
1793.00,0.0137
1792.00,0.0137
1791.00,0.0137
1790.00,0.0137
1789.00,0.0139
1788.00,0.0141
1787.00,0.0142
1786.00,0.0143
1785.00,0.0143
1784.00,0.0143
1783.00,0.0143
1782.00,0.0144
1781.00,0.0145
1780.00,0.0146
1779.00,0.0147
1778.00,0.0147
1777.00,0.0148
1776.00,0.0149
1775.00,0.0151
1774.00,0.0153
1773.00,0.0154
1772.00,0.0154
1771.00,0.0155
1770.00,0.0157
1769.00,0.0159
1768.00,0.0161
1767.00,0.0162
1766.00,0.0162
1765.00,0.0164
1764.00,0.0166
1763.00,0.0167
1762.00,0.0168
1761.00,0.0169
1760.00,0.0170
1759.00,0.0173
1758.00,0.0175
1757.00,0.0177
1756.00,0.0179
1755.00,0.0182
1754.00,0.0186
1753.00,0.0190
1752.00,0.0192
1751.00,0.0193
1750.00,0.0193
1749.00,0.0195
1748.00,0.0199
1747.00,0.0203
1746.00,0.0206
1745.00,0.0209
1744.00,0.0212
1743.00,0.0214
1742.00,0.0217
1741.00,0.0220
1740.00,0.0223
1739.00,0.0225
1738.00,0.0228
1737.00,0.0232
1736.00,0.0237
1735.00,0.0241
1734.00,0.0241
1733.00,0.0242
1732.00,0.0245
1731.00,0.0248
1730.00,0.0252
1729.00,0.0257
1728.00,0.0261
1727.00,0.0265
1726.00,0.0268
1725.00,0.0271
1724.00,0.0275
1723.00,0.0278
1722.00,0.0280
1721.00,0.0284
1720.00,0.0288
1719.00,0.0292
1718.00,0.0295
1717.00,0.0299
1716.00,0.0303
1715.00,0.0308
1714.00,0.0313
1713.00,0.0318
1712.00,0.0323
1711.00,0.0328
1710.00,0.0332
1709.00,0.0337
1708.00,0.0342
1707.00,0.0347
1706.00,0.0353
1705.00,0.0359
1704.00,0.0367
1703.00,0.0375
1702.00,0.0384
1701.00,0.0390
1700.00,0.0397
1699.00,0.0405
1698.00,0.0415
1697.00,0.0427
1696.00,0.0440
1695.00,0.0450
1694.00,0.0457
1693.00,0.0464
1692.00,0.0473
1691.00,0.0483
1690.00,0.0493
1689.00,0.0503
1688.00,0.0516
1687.00,0.0528
1686.00,0.0540
1685.00,0.0552
1684.00,0.0567
1683.00,0.0583
1682.00,0.0596
1681.00,0.0609
1680.00,0.0622
1679.00,0.0635
1678.00,0.0648
1677.00,0.0662
1676.00,0.0677
1675.00,0.0692
1674.00,0.0707
1673.00,0.0720
1672.00,0.0733
1671.00,0.0748
1670.00,0.0764
1669.00,0.0783
1668.00,0.0801
1667.00,0.0816
1666.00,0.0830
1665.00,0.0842
1664.00,0.0856
1663.00,0.0872
1662.00,0.0889
1661.00,0.0905
1660.00,0.0920
1659.00,0.0934
1658.00,0.0946
1657.00,0.0957
1656.00,0.0969
1655.00,0.0982
1654.00,0.0995
1653.00,0.1013
1652.00,0.1029
1651.00,0.1038
1650.00,0.1043
1649.00,0.1050
1648.00,0.1059
1647.00,0.1070
1646.00,0.1081
1645.00,0.1090
1644.00,0.1097
1643.00,0.1102
1642.00,0.1106
1641.00,0.1108
1640.00,0.1111
1639.00,0.1113
1638.00,0.1115
1637.00,0.1115
1636.00,0.1114
1635.00,0.1111
1634.00,0.1109
1633.00,0.1106
1632.00,0.1104
1631.00,0.1099
1630.00,0.1093
1629.00,0.1084
1628.00,0.1074
1627.00,0.1064
1626.00,0.1055
1625.00,0.1044
1624.00,0.1032
1623.00,0.1017
1622.00,0.1001
1621.00,0.0989
1620.00,0.0979
1619.00,0.0969
1618.00,0.0955
1617.00,0.0935
1616.00,0.0913
1615.00,0.0895
1614.00,0.0880
1613.00,0.0868
1612.00,0.0854
1611.00,0.0839
1610.00,0.0823
1609.00,0.0808
1608.00,0.0794
1607.00,0.0779
1606.00,0.0765
1605.00,0.0751
1604.00,0.0737
1603.00,0.0723
1602.00,0.0710
1601.00,0.0698
1600.00,0.0685
1599.00,0.0674
1598.00,0.0663
1597.00,0.0652
1596.00,0.0641
1595.00,0.0631
1594.00,0.0621
1593.00,0.0611
1592.00,0.0603
1591.00,0.0594
1590.00,0.0586
1589.00,0.0579
1588.00,0.0571
1587.00,0.0565
1586.00,0.0559
1585.00,0.0554
1584.00,0.0550
1583.00,0.0546
1582.00,0.0543
1581.00,0.0539
1580.00,0.0536
1579.00,0.0534
1578.00,0.0532
1577.00,0.0527
1576.00,0.0518
1575.00,0.0509
1574.00,0.0500
1573.00,0.0494
1572.00,0.0488
1571.00,0.0482
1570.00,0.0474
1569.00,0.0466
1568.00,0.0460
1567.00,0.0456
1566.00,0.0452
1565.00,0.0448
1564.00,0.0444
1563.00,0.0442
1562.00,0.0443
1561.00,0.0440
1560.00,0.0432
1559.00,0.0424
1558.00,0.0422
1557.00,0.0422
1556.00,0.0423
1555.00,0.0423
1554.00,0.0421
1553.00,0.0419
1552.00,0.0418
1551.00,0.0418
1550.00,0.0418
1549.00,0.0419
1548.00,0.0419
1547.00,0.0420
1546.00,0.0421
1545.00,0.0421
1544.00,0.0421
1543.00,0.0422
1542.00,0.0423
1541.00,0.0423
1540.00,0.0421
1539.00,0.0416
1538.00,0.0410
1537.00,0.0405
1536.00,0.0400
1535.00,0.0395
1534.00,0.0388
1533.00,0.0380
1532.00,0.0375
1531.00,0.0372
1530.00,0.0369
1529.00,0.0366
1528.00,0.0363
1527.00,0.0360
1526.00,0.0357
1525.00,0.0354
1524.00,0.0352
1523.00,0.0351
1522.00,0.0349
1521.00,0.0347
1520.00,0.0344
1519.00,0.0341
1518.00,0.0340
1517.00,0.0340
1516.00,0.0340
1515.00,0.0340
1514.00,0.0340
1513.00,0.0339
1512.00,0.0337
1511.00,0.0334
1510.00,0.0332
1509.00,0.0331
1508.00,0.0330
1507.00,0.0330
1506.00,0.0331
1505.00,0.0331
1504.00,0.0329
1503.00,0.0329
1502.00,0.0328
1501.00,0.0328
1500.00,0.0327
1499.00,0.0327
1498.00,0.0327
1497.00,0.0328
1496.00,0.0329
1495.00,0.0330
1494.00,0.0331
1493.00,0.0332
1492.00,0.0333
1491.00,0.0333
1490.00,0.0335
1489.00,0.0337
1488.00,0.0341
1487.00,0.0344
1486.00,0.0348
1485.00,0.0352
1484.00,0.0356
1483.00,0.0360
1482.00,0.0364
1481.00,0.0369
1480.00,0.0374
1479.00,0.0379
1478.00,0.0384
1477.00,0.0388
1476.00,0.0393
1475.00,0.0398
1474.00,0.0403
1473.00,0.0409
1472.00,0.0413
1471.00,0.0415
1470.00,0.0416
1469.00,0.0417
1468.00,0.0418
1467.00,0.0418
1466.00,0.0419
1465.00,0.0420
1464.00,0.0421
1463.00,0.0420
1462.00,0.0419
1461.00,0.0417
1460.00,0.0416
1459.00,0.0415
1458.00,0.0416
1457.00,0.0419
1456.00,0.0421
1455.00,0.0421
1454.00,0.0421
1453.00,0.0422
1452.00,0.0422
1451.00,0.0421
1450.00,0.0421
1449.00,0.0422
1448.00,0.0422
1447.00,0.0423
1446.00,0.0424
1445.00,0.0426
1444.00,0.0427
1443.00,0.0429
1442.00,0.0430
1441.00,0.0431
1440.00,0.0433
1439.00,0.0436
1438.00,0.0439
1437.00,0.0442
1436.00,0.0444
1435.00,0.0446
1434.00,0.0447
1433.00,0.0449
1432.00,0.0450
1431.00,0.0451
1430.00,0.0453
1429.00,0.0455
1428.00,0.0457
1427.00,0.0459
1426.00,0.0460
1425.00,0.0461
1424.00,0.0463
1423.00,0.0465
1422.00,0.0468
1421.00,0.0470
1420.00,0.0471
1419.00,0.0471
1418.00,0.0471
1417.00,0.0471
1416.00,0.0472
1415.00,0.0472
1414.00,0.0472
1413.00,0.0471
1412.00,0.0471
1411.00,0.0470
1410.00,0.0470
1409.00,0.0469
1408.00,0.0469
1407.00,0.0468
1406.00,0.0467
1405.00,0.0466
1404.00,0.0465
1403.00,0.0464
1402.00,0.0463
1401.00,0.0461
1400.00,0.0459
1399.00,0.0457
1398.00,0.0455
1397.00,0.0454
1396.00,0.0453
1395.00,0.0453
1394.00,0.0453
1393.00,0.0454
1392.00,0.0455
1391.00,0.0456
1390.00,0.0457
1389.00,0.0460
1388.00,0.0463
1387.00,0.0466
1386.00,0.0471
1385.00,0.0475
1384.00,0.0480
1383.00,0.0485
1382.00,0.0489
1381.00,0.0493
1380.00,0.0497
1379.00,0.0500
1378.00,0.0502
1377.00,0.0503
1376.00,0.0504
1375.00,0.0505
1374.00,0.0506
1373.00,0.0506
1372.00,0.0507
1371.00,0.0506
1370.00,0.0506
1369.00,0.0506
1368.00,0.0505
1367.00,0.0504
1366.00,0.0503
1365.00,0.0501
1364.00,0.0499
1363.00,0.0497
1362.00,0.0496
1361.00,0.0495
1360.00,0.0494
1359.00,0.0492
1358.00,0.0491
1357.00,0.0490
1356.00,0.0488
1355.00,0.0487
1354.00,0.0485
1353.00,0.0484
1352.00,0.0482
1351.00,0.0480
1350.00,0.0478
1349.00,0.0476
1348.00,0.0474
1347.00,0.0473
1346.00,0.0471
1345.00,0.0470
1344.00,0.0469
1343.00,0.0467
1342.00,0.0466
1341.00,0.0465
1340.00,0.0464
1339.00,0.0464
1338.00,0.0464
1337.00,0.0465
1336.00,0.0465
1335.00,0.0464
1334.00,0.0463
1333.00,0.0461
1332.00,0.0460
1331.00,0.0459
1330.00,0.0458
1329.00,0.0457
1328.00,0.0457
1327.00,0.0456
1326.00,0.0455
1325.00,0.0455
1324.00,0.0454
1323.00,0.0453
1322.00,0.0453
1321.00,0.0452
1320.00,0.0452
1319.00,0.0452
1318.00,0.0452
1317.00,0.0453
1316.00,0.0454
1315.00,0.0454
1314.00,0.0455
1313.00,0.0455
1312.00,0.0456
1311.00,0.0457
1310.00,0.0458
1309.00,0.0459
1308.00,0.0460
1307.00,0.0461
1306.00,0.0463
1305.00,0.0465
1304.00,0.0467
1303.00,0.0469
1302.00,0.0471
1301.00,0.0474
1300.00,0.0477
1299.00,0.0480
1298.00,0.0483
1297.00,0.0487
1296.00,0.0491
1295.00,0.0495
1294.00,0.0500
1293.00,0.0504
1292.00,0.0509
1291.00,0.0513
1290.00,0.0517
1289.00,0.0521
1288.00,0.0526
1287.00,0.0532
1286.00,0.0537
1285.00,0.0543
1284.00,0.0549
1283.00,0.0556
1282.00,0.0562
1281.00,0.0569
1280.00,0.0576
1279.00,0.0584
1278.00,0.0591
1277.00,0.0598
1276.00,0.0605
1275.00,0.0613
1274.00,0.0620
1273.00,0.0627
1272.00,0.0635
1271.00,0.0642
1270.00,0.0649
1269.00,0.0656
1268.00,0.0663
1267.00,0.0670
1266.00,0.0677
1265.00,0.0684
1264.00,0.0690
1263.00,0.0696
1262.00,0.0702
1261.00,0.0708
1260.00,0.0714
1259.00,0.0720
1258.00,0.0725
1257.00,0.0730
1256.00,0.0735
1255.00,0.0738
1254.00,0.0741
1253.00,0.0744
1252.00,0.0747
1251.00,0.0750
1250.00,0.0752
1249.00,0.0755
1248.00,0.0757
1247.00,0.0760
1246.00,0.0762
1245.00,0.0764
1244.00,0.0767
1243.00,0.0770
1242.00,0.0772
1241.00,0.0776
1240.00,0.0779
1239.00,0.0783
1238.00,0.0787
1237.00,0.0791
1236.00,0.0796
1235.00,0.0801
1234.00,0.0805
1233.00,0.0810
1232.00,0.0815
1231.00,0.0819
1230.00,0.0824
1229.00,0.0828
1228.00,0.0832
1227.00,0.0836
1226.00,0.0841
1225.00,0.0845
1224.00,0.0850
1223.00,0.0855
1222.00,0.0859
1221.00,0.0864
1220.00,0.0868
1219.00,0.0873
1218.00,0.0877
1217.00,0.0881
1216.00,0.0886
1215.00,0.0890
1214.00,0.0894
1213.00,0.0899
1212.00,0.0903
1211.00,0.0908
1210.00,0.0913
1209.00,0.0918
1208.00,0.0924
1207.00,0.0930
1206.00,0.0937
1205.00,0.0944
1204.00,0.0952
1203.00,0.0960
1202.00,0.0969
1201.00,0.0979
1200.00,0.0990
1199.00,0.1002
1198.00,0.1015
1197.00,0.1029
1196.00,0.1045
1195.00,0.1060
1194.00,0.1076
1193.00,0.1092
1192.00,0.1107
1191.00,0.1122
1190.00,0.1136
1189.00,0.1149
1188.00,0.1162
1187.00,0.1175
1186.00,0.1188
1185.00,0.1203
1184.00,0.1218
1183.00,0.1234
1182.00,0.1251
1181.00,0.1271
1180.00,0.1292
1179.00,0.1314
1178.00,0.1337
1177.00,0.1361
1176.00,0.1385
1175.00,0.1409
1174.00,0.1434
1173.00,0.1460
1172.00,0.1487
1171.00,0.1515
1170.00,0.1544
1169.00,0.1574
1168.00,0.1606
1167.00,0.1637
1166.00,0.1669
1165.00,0.1701
1164.00,0.1734
1163.00,0.1768
1162.00,0.1801
1161.00,0.1834
1160.00,0.1866
1159.00,0.1895
1158.00,0.1921
1157.00,0.1946
1156.00,0.1968
1155.00,0.1988
1154.00,0.2005
1153.00,0.2020
1152.00,0.2034
1151.00,0.2046
1150.00,0.2055
1149.00,0.2063
1148.00,0.2069
1147.00,0.2073
1146.00,0.2076
1145.00,0.2079
1144.00,0.2081
1143.00,0.2084
1142.00,0.2087
1141.00,0.2092
1140.00,0.2099
1139.00,0.2109
1138.00,0.2121
1137.00,0.2137
1136.00,0.2156
1135.00,0.2177
1134.00,0.2198
1133.00,0.2220
1132.00,0.2240
1131.00,0.2257
1130.00,0.2271
1129.00,0.2283
1128.00,0.2293
1127.00,0.2301
1126.00,0.2308
1125.00,0.2313
1124.00,0.2319
1123.00,0.2325
1122.00,0.2330
1121.00,0.2335
1120.00,0.2342
1119.00,0.2347
1118.00,0.2351
1117.00,0.2356
1116.00,0.2360
1115.00,0.2362
1114.00,0.2362
1113.00,0.2362
1112.00,0.2360
1111.00,0.2357
1110.00,0.2353
1109.00,0.2349
1108.00,0.2345
1107.00,0.2341
1106.00,0.2336
1105.00,0.2332
1104.00,0.2328
1103.00,0.2325
1102.00,0.2322
1101.00,0.2322
1100.00,0.2325
1099.00,0.2329
1098.00,0.2335
1097.00,0.2343
1096.00,0.2352
1095.00,0.2361
1094.00,0.2370
1093.00,0.2378
1092.00,0.2387
1091.00,0.2394
1090.00,0.2399
1089.00,0.2404
1088.00,0.2409
1087.00,0.2413
1086.00,0.2416
1085.00,0.2421
1084.00,0.2428
1083.00,0.2439
1082.00,0.2452
1081.00,0.2468
1080.00,0.2488
1079.00,0.2508
1078.00,0.2529
1077.00,0.2550
1076.00,0.2571
1075.00,0.2591
1074.00,0.2608
1073.00,0.2624
1072.00,0.2640
1071.00,0.2655
1070.00,0.2670
1069.00,0.2686
1068.00,0.2699
1067.00,0.2706
1066.00,0.2705
1065.00,0.2696
1064.00,0.2678
1063.00,0.2652
1062.00,0.2620
1061.00,0.2586
1060.00,0.2554
1059.00,0.2525
1058.00,0.2501
1057.00,0.2485
1056.00,0.2475
1055.00,0.2468
1054.00,0.2463
1053.00,0.2458
1052.00,0.2453
1051.00,0.2446
1050.00,0.2437
1049.00,0.2428
1048.00,0.2420
1047.00,0.2413
1046.00,0.2408
1045.00,0.2405
1044.00,0.2404
1043.00,0.2405
1042.00,0.2405
1041.00,0.2407
1040.00,0.2407
1039.00,0.2406
1038.00,0.2401
1037.00,0.2393
1036.00,0.2383
1035.00,0.2371
1034.00,0.2355
1033.00,0.2338
1032.00,0.2321
1031.00,0.2303
1030.00,0.2282
1029.00,0.2261
1028.00,0.2238
1027.00,0.2213
1026.00,0.2187
1025.00,0.2160
1024.00,0.2133
1023.00,0.2105
1022.00,0.2077
1021.00,0.2050
1020.00,0.2023
1019.00,0.1996
1018.00,0.1968
1017.00,0.1940
1016.00,0.1912
1015.00,0.1883
1014.00,0.1854
1013.00,0.1826
1012.00,0.1799
1011.00,0.1772
1010.00,0.1746
1009.00,0.1722
1008.00,0.1699
1007.00,0.1677
1006.00,0.1656
1005.00,0.1635
1004.00,0.1615
1003.00,0.1595
1002.00,0.1575
1001.00,0.1556
1000.00,0.1539
999.00,0.1522
998.00,0.1507
997.00,0.1494
996.00,0.1484
995.00,0.1475
994.00,0.1467
993.00,0.1460
992.00,0.1453
991.00,0.1444
990.00,0.1434
989.00,0.1420
988.00,0.1402
987.00,0.1379
986.00,0.1354
985.00,0.1325
984.00,0.1296
983.00,0.1266
982.00,0.1237
981.00,0.1211
980.00,0.1189
979.00,0.1169
978.00,0.1154
977.00,0.1142
976.00,0.1134
975.00,0.1129
974.00,0.1128
973.00,0.1129
972.00,0.1133
971.00,0.1136
970.00,0.1136
969.00,0.1133
968.00,0.1125
967.00,0.1113
966.00,0.1099
965.00,0.1083
964.00,0.1069
963.00,0.1057
962.00,0.1048
961.00,0.1044
960.00,0.1044
959.00,0.1047
958.00,0.1054
957.00,0.1063
956.00,0.1076
955.00,0.1091
954.00,0.1107
953.00,0.1124
952.00,0.1141
951.00,0.1159
950.00,0.1179
949.00,0.1199
948.00,0.1220
947.00,0.1243
946.00,0.1268
945.00,0.1293
944.00,0.1321
943.00,0.1351
942.00,0.1385
941.00,0.1422
940.00,0.1462
939.00,0.1505
938.00,0.1546
937.00,0.1586
936.00,0.1622
935.00,0.1656
934.00,0.1685
933.00,0.1712
932.00,0.1735
931.00,0.1756
930.00,0.1773
929.00,0.1787
928.00,0.1797
927.00,0.1803
926.00,0.1805
925.00,0.1804
924.00,0.1802
923.00,0.1800
922.00,0.1798
921.00,0.1796
920.00,0.1795
919.00,0.1793
918.00,0.1791
917.00,0.1788
916.00,0.1785
915.00,0.1781
914.00,0.1776
913.00,0.1770
912.00,0.1765
911.00,0.1759
910.00,0.1753
909.00,0.1747
908.00,0.1743
907.00,0.1738
906.00,0.1734
905.00,0.1731
904.00,0.1728
903.00,0.1726
902.00,0.1724
901.00,0.1723
900.00,0.1724
899.00,0.1726
898.00,0.1728
897.00,0.1730
896.00,0.1732
895.00,0.1731
894.00,0.1728
893.00,0.1722
892.00,0.1712
891.00,0.1696
890.00,0.1676
889.00,0.1652
888.00,0.1625
887.00,0.1597
886.00,0.1568
885.00,0.1539
884.00,0.1512
883.00,0.1485
882.00,0.1461
881.00,0.1439
880.00,0.1420
879.00,0.1403
878.00,0.1390
877.00,0.1381
876.00,0.1374
875.00,0.1370
874.00,0.1365
873.00,0.1358
872.00,0.1349
871.00,0.1339
870.00,0.1328
869.00,0.1317
868.00,0.1307
867.00,0.1297
866.00,0.1287
865.00,0.1278
864.00,0.1269
863.00,0.1262
862.00,0.1255
861.00,0.1250
860.00,0.1247
859.00,0.1244
858.00,0.1242
857.00,0.1240
856.00,0.1238
855.00,0.1237
854.00,0.1237
853.00,0.1237
852.00,0.1240
851.00,0.1243
850.00,0.1247
849.00,0.1251
848.00,0.1255
847.00,0.1259
846.00,0.1262
845.00,0.1264
844.00,0.1264
843.00,0.1261
842.00,0.1256
841.00,0.1250
840.00,0.1243
839.00,0.1237
838.00,0.1230
837.00,0.1225
836.00,0.1221
835.00,0.1218
834.00,0.1215
833.00,0.1212
832.00,0.1209
831.00,0.1208
830.00,0.1208
829.00,0.1209
828.00,0.1211
827.00,0.1212
826.00,0.1214
825.00,0.1216
824.00,0.1220
823.00,0.1225
822.00,0.1229
821.00,0.1233
820.00,0.1235
819.00,0.1237
818.00,0.1240
817.00,0.1243
816.00,0.1248
815.00,0.1252
814.00,0.1257
813.00,0.1262
812.00,0.1267
811.00,0.1272
810.00,0.1277
809.00,0.1283
808.00,0.1289
807.00,0.1297
806.00,0.1304
805.00,0.1312
804.00,0.1321
803.00,0.1330
802.00,0.1340
801.00,0.1348
800.00,0.1357
799.00,0.1365
798.00,0.1373
797.00,0.1381
796.00,0.1390
795.00,0.1398
794.00,0.1407
793.00,0.1418
792.00,0.1430
791.00,0.1440
790.00,0.1447
789.00,0.1453
788.00,0.1457
787.00,0.1460
786.00,0.1463
785.00,0.1465
784.00,0.1469
783.00,0.1472
782.00,0.1475
781.00,0.1480
780.00,0.1486
779.00,0.1494
778.00,0.1503
777.00,0.1512
776.00,0.1522
775.00,0.1531
774.00,0.1539
773.00,0.1547
772.00,0.1553
771.00,0.1558
770.00,0.1562
769.00,0.1565
768.00,0.1570
767.00,0.1573
766.00,0.1576
765.00,0.1580
764.00,0.1584
763.00,0.1590
762.00,0.1597
761.00,0.1605
760.00,0.1614
759.00,0.1622
758.00,0.1629
757.00,0.1638
756.00,0.1647
755.00,0.1657
754.00,0.1666
753.00,0.1675
752.00,0.1686
751.00,0.1697
750.00,0.1709
749.00,0.1721
748.00,0.1735
747.00,0.1749
746.00,0.1763
745.00,0.1777
744.00,0.1790
743.00,0.1802
742.00,0.1813
741.00,0.1822
740.00,0.1829
739.00,0.1833
738.00,0.1835
737.00,0.1837
736.00,0.1839
735.00,0.1840
734.00,0.1843
733.00,0.1849
732.00,0.1855
731.00,0.1861
730.00,0.1867
729.00,0.1872
728.00,0.1880
727.00,0.1889
726.00,0.1900
725.00,0.1913
724.00,0.1929
723.00,0.1945
722.00,0.1960
721.00,0.1973
720.00,0.1983
719.00,0.1988
718.00,0.1989
717.00,0.1988
716.00,0.1985
715.00,0.1981
714.00,0.1976
713.00,0.1971
712.00,0.1967
711.00,0.1964
710.00,0.1962
709.00,0.1961
708.00,0.1962
707.00,0.1965
706.00,0.1967
705.00,0.1971
704.00,0.1974
703.00,0.1977
702.00,0.1981
701.00,0.1985
700.00,0.1990
699.00,0.1996
698.00,0.1999
697.00,0.2002
696.00,0.2004
695.00,0.2005
694.00,0.2006
693.00,0.2006
692.00,0.2006
691.00,0.2006
690.00,0.2004
689.00,0.2003
688.00,0.2003
687.00,0.2002
686.00,0.2002
685.00,0.2003
684.00,0.2006
683.00,0.2009
682.00,0.2013
681.00,0.2017
680.00,0.2022
679.00,0.2026
678.00,0.2029
677.00,0.2032
676.00,0.2037
675.00,0.2044
674.00,0.2051
673.00,0.2058
672.00,0.2063
671.00,0.2066
670.00,0.2068
669.00,0.2073
668.00,0.2086
667.00,0.2098
666.00,0.2102
665.00,0.2101
664.00,0.2101
663.00,0.2102
662.00,0.2104
661.00,0.2108
660.00,0.2112
659.00,0.2116
658.00,0.2119
657.00,0.2122
656.00,0.2125
655.00,0.2129
654.00,0.2132
653.00,0.2136
652.00,0.2140
651.00,0.2144
650.00,0.2147
649.00,0.2152
648.00,0.2159
647.00,0.2166
646.00,0.2172
645.00,0.2178
644.00,0.2182
643.00,0.2186
642.00,0.2190
641.00,0.2196
640.00,0.2204
639.00,0.2214
638.00,0.2222
637.00,0.2229
636.00,0.2237
635.00,0.2246
634.00,0.2255
633.00,0.2266
632.00,0.2280
631.00,0.2295
630.00,0.2309
629.00,0.2322
628.00,0.2333
627.00,0.2344
626.00,0.2353
625.00,0.2363
624.00,0.2378
623.00,0.2394
622.00,0.2408
621.00,0.2422
620.00,0.2436
619.00,0.2448
618.00,0.2457
617.00,0.2466
616.00,0.2475
615.00,0.2484
614.00,0.2491
613.00,0.2499
612.00,0.2508
611.00,0.2519
610.00,0.2529
609.00,0.2538
608.00,0.2547
607.00,0.2555
606.00,0.2563
605.00,0.2574
604.00,0.2587
603.00,0.2602
602.00,0.2615
601.00,0.2630
600.00,0.2646
599.00,0.2662
598.00,0.2678
597.00,0.2696
596.00,0.2720
595.00,0.2744
594.00,0.2767
593.00,0.2789
592.00,0.2813
591.00,0.2838
590.00,0.2863
589.00,0.2890
588.00,0.2918
587.00,0.2948
586.00,0.2979
585.00,0.3010
584.00,0.3041
583.00,0.3072
582.00,0.3100
581.00,0.3131
580.00,0.3166
579.00,0.3197
578.00,0.3224
577.00,0.3248
576.00,0.3274
575.00,0.3300
574.00,0.3322
573.00,0.3341
572.00,0.3362
571.00,0.3383
570.00,0.3405
569.00,0.3431
568.00,0.3460
567.00,0.3488
566.00,0.3510
565.00,0.3528
564.00,0.3546
563.00,0.3564
562.00,0.3579
561.00,0.3595
560.00,0.3615
559.00,0.3635
558.00,0.3651
557.00,0.3665
556.00,0.3679
555.00,0.3689
554.00,0.3694
553.00,0.3697
552.00,0.3705
551.00,0.3713
550.00,0.3718
549.00,0.3722
548.00,0.3730
547.00,0.3737
546.00,0.3740
545.00,0.3744
544.00,0.3748
543.00,0.3748
542.00,0.3741
541.00,0.3736
540.00,0.3736
539.00,0.3736
538.00,0.3731
537.00,0.3725
536.00,0.3721
535.00,0.3716
534.00,0.3707
533.00,0.3700
532.00,0.3700
531.00,0.3702
530.00,0.3701
529.00,0.3696
528.00,0.3691
527.00,0.3686
526.00,0.3681
525.00,0.3679
524.00,0.3682
523.00,0.3685
522.00,0.3686
521.00,0.3690
520.00,0.3699
519.00,0.3706
518.00,0.3703
517.00,0.3698
516.00,0.3697
515.00,0.3696
514.00,0.3691
513.00,0.3683
512.00,0.3677
511.00,0.3668
510.00,0.3654
509.00,0.3642
508.00,0.3634
507.00,0.3627
506.00,0.3616
505.00,0.3607
504.00,0.3603
503.00,0.3599
502.00,0.3590
501.00,0.3583
500.00,0.3581
499.00,0.3580
498.00,0.3574
497.00,0.3567
496.00,0.3564
495.00,0.3565
494.00,0.3567
493.00,0.3573
492.00,0.3585
491.00,0.3597
490.00,0.3602
489.00,0.3602
488.00,0.3600
487.00,0.3597
486.00,0.3593
485.00,0.3597
484.00,0.3609
483.00,0.3621
482.00,0.3624
481.00,0.3625
480.00,0.3627
479.00,0.3627
478.00,0.3620
477.00,0.3615
476.00,0.3618
475.00,0.3622
474.00,0.3619
473.00,0.3611
472.00,0.3601
471.00,0.3587
470.00,0.3570
469.00,0.3559
468.00,0.3561
467.00,0.3565
466.00,0.3563
465.00,0.3562
464.00,0.3571
463.00,0.3582
462.00,0.3585
461.00,0.3579
460.00,0.3569
459.00,0.3553
458.00,0.3529
457.00,0.3514
456.00,0.3520
455.00,0.3532
454.00,0.3539
453.00,0.3544
452.00,0.3553
451.00,0.3554
450.00,0.3541
