Created as New Dataset,Sample 005 By Administrator Date Monday, June 09 2025
cm-1,A
4000.00,0.0088
3999.00,0.0088
3998.00,0.0088
3997.00,0.0088
3996.00,0.0088
3995.00,0.0088
3994.00,0.0088
3993.00,0.0088
3992.00,0.0088
3991.00,0.0088
3990.00,0.0089
3989.00,0.0089
3988.00,0.0089
3987.00,0.0089
3986.00,0.0089
3985.00,0.0089
3984.00,0.0088
3983.00,0.0088
3982.00,0.0088
3981.00,0.0088
3980.00,0.0088
3979.00,0.0089
3978.00,0.0089
3977.00,0.0089
3976.00,0.0090
3975.00,0.0090
3974.00,0.0090
3973.00,0.0090
3972.00,0.0089
3971.00,0.0089
3970.00,0.0089
3969.00,0.0089
3968.00,0.0089
3967.00,0.0089
3966.00,0.0089
3965.00,0.0089
3964.00,0.0090
3963.00,0.0090
3962.00,0.0090
3961.00,0.0090
3960.00,0.0090
3959.00,0.0090
3958.00,0.0090
3957.00,0.0090
3956.00,0.0090
3955.00,0.0090
3954.00,0.0090
3953.00,0.0090
3952.00,0.0091
3951.00,0.0091
3950.00,0.0091
3949.00,0.0091
3948.00,0.0091
3947.00,0.0091
3946.00,0.0091
3945.00,0.0092
3944.00,0.0092
3943.00,0.0091
3942.00,0.0090
3941.00,0.0090
3940.00,0.0090
3939.00,0.0090
3938.00,0.0090
3937.00,0.0090
3936.00,0.0091
3935.00,0.0092
3934.00,0.0093
3933.00,0.0093
3932.00,0.0093
3931.00,0.0093
3930.00,0.0092
3929.00,0.0091
3928.00,0.0091
3927.00,0.0091
3926.00,0.0091
3925.00,0.0091
3924.00,0.0091
3923.00,0.0091
3922.00,0.0092
3921.00,0.0093
3920.00,0.0094
3919.00,0.0095
3918.00,0.0094
3917.00,0.0094
3916.00,0.0093
3915.00,0.0092
3914.00,0.0091
3913.00,0.0090
3912.00,0.0089
3911.00,0.0089
3910.00,0.0089
3909.00,0.0089
3908.00,0.0090
3907.00,0.0091
3906.00,0.0092
3905.00,0.0094
3904.00,0.0096
3903.00,0.0098
3902.00,0.0100
3901.00,0.0100
3900.00,0.0100
3899.00,0.0098
3898.00,0.0096
3897.00,0.0094
3896.00,0.0093
3895.00,0.0093
3894.00,0.0093
3893.00,0.0093
3892.00,0.0092
3891.00,0.0092
3890.00,0.0092
3889.00,0.0093
3888.00,0.0094
3887.00,0.0096
3886.00,0.0096
3885.00,0.0095
3884.00,0.0095
3883.00,0.0095
3882.00,0.0096
3881.00,0.0096
3880.00,0.0094
3879.00,0.0093
3878.00,0.0093
3877.00,0.0093
3876.00,0.0094
3875.00,0.0094
3874.00,0.0094
3873.00,0.0094
3872.00,0.0095
3871.00,0.0096
3870.00,0.0096
3869.00,0.0096
3868.00,0.0095
3867.00,0.0096
3866.00,0.0098
3865.00,0.0098
3864.00,0.0097
3863.00,0.0096
3862.00,0.0095
3861.00,0.0095
3860.00,0.0095
3859.00,0.0094
3858.00,0.0092
3857.00,0.0089
3856.00,0.0088
3855.00,0.0089
3854.00,0.0091
3853.00,0.0093
3852.00,0.0094
3851.00,0.0095
3850.00,0.0096
3849.00,0.0096
3848.00,0.0096
3847.00,0.0095
3846.00,0.0094
3845.00,0.0094
3844.00,0.0093
3843.00,0.0093
3842.00,0.0094
3841.00,0.0095
3840.00,0.0096
3839.00,0.0096
3838.00,0.0097
3837.00,0.0097
3836.00,0.0097
3835.00,0.0097
3834.00,0.0096
3833.00,0.0096
3832.00,0.0095
3831.00,0.0094
3830.00,0.0094
3829.00,0.0093
3828.00,0.0093
3827.00,0.0092
3826.00,0.0091
3825.00,0.0091
3824.00,0.0091
3823.00,0.0094
3822.00,0.0096
3821.00,0.0096
3820.00,0.0095
3819.00,0.0095
3818.00,0.0095
3817.00,0.0096
3816.00,0.0095
3815.00,0.0094
3814.00,0.0092
3813.00,0.0091
3812.00,0.0090
3811.00,0.0089
3810.00,0.0088
3809.00,0.0088
3808.00,0.0089
3807.00,0.0089
3806.00,0.0090
3805.00,0.0091
3804.00,0.0092
3803.00,0.0094
3802.00,0.0095
3801.00,0.0094
3800.00,0.0094
3799.00,0.0094
3798.00,0.0095
3797.00,0.0095
3796.00,0.0094
3795.00,0.0092
3794.00,0.0091
3793.00,0.0090
3792.00,0.0089
3791.00,0.0089
3790.00,0.0088
3789.00,0.0087
3788.00,0.0087
3787.00,0.0088
3786.00,0.0088
3785.00,0.0088
3784.00,0.0088
3783.00,0.0089
3782.00,0.0090
3781.00,0.0091
3780.00,0.0090
3779.00,0.0089
3778.00,0.0088
3777.00,0.0088
3776.00,0.0088
3775.00,0.0089
3774.00,0.0089
3773.00,0.0090
3772.00,0.0090
3771.00,0.0091
3770.00,0.0092
3769.00,0.0092
3768.00,0.0093
3767.00,0.0094
3766.00,0.0094
3765.00,0.0094
3764.00,0.0093
3763.00,0.0094
3762.00,0.0095
3761.00,0.0096
3760.00,0.0097
3759.00,0.0097
3758.00,0.0097
3757.00,0.0097
3756.00,0.0098
3755.00,0.0099
3754.00,0.0099
3753.00,0.0100
3752.00,0.0101
3751.00,0.0101
3750.00,0.0103
3749.00,0.0105
3748.00,0.0105
3747.00,0.0106
3746.00,0.0107
3745.00,0.0108
3744.00,0.0107
3743.00,0.0106
3742.00,0.0106
3741.00,0.0106
3740.00,0.0106
3739.00,0.0107
3738.00,0.0109
3737.00,0.0111
3736.00,0.0111
3735.00,0.0109
3734.00,0.0107
3733.00,0.0106
3732.00,0.0106
3731.00,0.0105
3730.00,0.0104
3729.00,0.0104
3728.00,0.0104
3727.00,0.0105
3726.00,0.0104
3725.00,0.0104
3724.00,0.0104
3723.00,0.0104
3722.00,0.0103
3721.00,0.0102
3720.00,0.0101
3719.00,0.0101
3718.00,0.0100
3717.00,0.0099
3716.00,0.0099
3715.00,0.0100
3714.00,0.0102
3713.00,0.0104
3712.00,0.0106
3711.00,0.0107
3710.00,0.0108
3709.00,0.0108
3708.00,0.0109
3707.00,0.0109
3706.00,0.0108
3705.00,0.0108
3704.00,0.0108
3703.00,0.0108
3702.00,0.0107
3701.00,0.0107
3700.00,0.0107
3699.00,0.0108
3698.00,0.0109
3697.00,0.0110
3696.00,0.0110
3695.00,0.0111
3694.00,0.0113
3693.00,0.0115
3692.00,0.0116
3691.00,0.0118
3690.00,0.0119
3689.00,0.0121
3688.00,0.0123
3687.00,0.0124
3686.00,0.0126
3685.00,0.0127
3684.00,0.0128
3683.00,0.0129
3682.00,0.0130
3681.00,0.0131
3680.00,0.0133
3679.00,0.0134
3678.00,0.0136
3677.00,0.0140
3676.00,0.0145
3675.00,0.0148
3674.00,0.0152
3673.00,0.0156
3672.00,0.0160
3671.00,0.0164
3670.00,0.0165
3669.00,0.0166
3668.00,0.0167
3667.00,0.0168
3666.00,0.0170
3665.00,0.0172
3664.00,0.0173
3663.00,0.0175
3662.00,0.0177
3661.00,0.0179
3660.00,0.0182
3659.00,0.0186
3658.00,0.0190
3657.00,0.0195
3656.00,0.0200
3655.00,0.0205
3654.00,0.0210
3653.00,0.0215
3652.00,0.0222
3651.00,0.0229
3650.00,0.0236
3649.00,0.0242
3648.00,0.0249
3647.00,0.0255
3646.00,0.0259
3645.00,0.0262
3644.00,0.0264
3643.00,0.0267
3642.00,0.0269
3641.00,0.0272
3640.00,0.0275
3639.00,0.0280
3638.00,0.0285
3637.00,0.0290
3636.00,0.0296
3635.00,0.0302
3634.00,0.0307
3633.00,0.0312
3632.00,0.0317
3631.00,0.0325
3630.00,0.0333
3629.00,0.0342
3628.00,0.0350
3627.00,0.0358
3626.00,0.0364
3625.00,0.0370
3624.00,0.0374
3623.00,0.0378
3622.00,0.0382
3621.00,0.0387
3620.00,0.0393
3619.00,0.0400
3618.00,0.0408
3617.00,0.0416
3616.00,0.0423
3615.00,0.0430
3614.00,0.0437
3613.00,0.0442
3612.00,0.0448
3611.00,0.0455
3610.00,0.0462
3609.00,0.0469
3608.00,0.0474
3607.00,0.0478
3606.00,0.0483
3605.00,0.0488
3604.00,0.0494
3603.00,0.0499
3602.00,0.0504
3601.00,0.0509
3600.00,0.0515
3599.00,0.0521
3598.00,0.0528
3597.00,0.0535
3596.00,0.0542
3595.00,0.0548
3594.00,0.0555
3593.00,0.0561
3592.00,0.0567
3591.00,0.0574
3590.00,0.0581
3589.00,0.0588
3588.00,0.0595
3587.00,0.0601
3586.00,0.0609
3585.00,0.0616
3584.00,0.0622
3583.00,0.0627
3582.00,0.0632
3581.00,0.0636
3580.00,0.0640
3579.00,0.0645
3578.00,0.0651
3577.00,0.0657
3576.00,0.0662
3575.00,0.0668
3574.00,0.0675
3573.00,0.0681
3572.00,0.0688
3571.00,0.0695
3570.00,0.0703
3569.00,0.0711
3568.00,0.0719
3567.00,0.0727
3566.00,0.0735
3565.00,0.0743
3564.00,0.0750
3563.00,0.0756
3562.00,0.0761
3561.00,0.0766
3560.00,0.0771
3559.00,0.0776
3558.00,0.0782
3557.00,0.0787
3556.00,0.0793
3555.00,0.0800
3554.00,0.0806
3553.00,0.0813
3552.00,0.0820
3551.00,0.0827
3550.00,0.0835
3549.00,0.0842
3548.00,0.0849
3547.00,0.0855
3546.00,0.0861
3545.00,0.0866
3544.00,0.0872
3543.00,0.0879
3542.00,0.0884
3541.00,0.0890
3540.00,0.0896
3539.00,0.0901
3538.00,0.0906
3537.00,0.0911
3536.00,0.0916
3535.00,0.0921
3534.00,0.0926
3533.00,0.0931
3532.00,0.0936
3531.00,0.0940
3530.00,0.0945
3529.00,0.0950
3528.00,0.0957
3527.00,0.0964
3526.00,0.0971
3525.00,0.0977
3524.00,0.0983
3523.00,0.0987
3522.00,0.0990
3521.00,0.0994
3520.00,0.0998
3519.00,0.1002
3518.00,0.1007
3517.00,0.1012
3516.00,0.1017
3515.00,0.1023
3514.00,0.1028
3513.00,0.1033
3512.00,0.1038
3511.00,0.1043
3510.00,0.1047
3509.00,0.1052
3508.00,0.1058
3507.00,0.1064
3506.00,0.1070
3505.00,0.1076
3504.00,0.1080
3503.00,0.1085
3502.00,0.1090
3501.00,0.1095
3500.00,0.1100
3499.00,0.1105
3498.00,0.1110
3497.00,0.1115
3496.00,0.1120
3495.00,0.1125
3494.00,0.1130
3493.00,0.1135
3492.00,0.1140
3491.00,0.1144
3490.00,0.1149
3489.00,0.1153
3488.00,0.1158
3487.00,0.1163
3486.00,0.1168
3485.00,0.1174
3484.00,0.1179
3483.00,0.1184
3482.00,0.1189
3481.00,0.1194
3480.00,0.1199
3479.00,0.1204
3478.00,0.1209
3477.00,0.1213
3476.00,0.1217
3475.00,0.1222
3474.00,0.1226
3473.00,0.1232
3472.00,0.1237
3471.00,0.1243
3470.00,0.1248
3469.00,0.1253
3468.00,0.1258
3467.00,0.1262
3466.00,0.1267
3465.00,0.1271
3464.00,0.1276
3463.00,0.1281
3462.00,0.1286
3461.00,0.1291
3460.00,0.1295
3459.00,0.1300
3458.00,0.1305
3457.00,0.1310
3456.00,0.1314
3455.00,0.1319
3454.00,0.1323
3453.00,0.1327
3452.00,0.1331
3451.00,0.1336
3450.00,0.1340
3449.00,0.1345
3448.00,0.1349
3447.00,0.1355
3446.00,0.1360
3445.00,0.1365
3444.00,0.1370
3443.00,0.1375
3442.00,0.1380
3441.00,0.1384
3440.00,0.1389
3439.00,0.1394
3438.00,0.1399
3437.00,0.1404
3436.00,0.1408
3435.00,0.1412
3434.00,0.1416
3433.00,0.1421
3432.00,0.1425
3431.00,0.1430
3430.00,0.1435
3429.00,0.1440
3428.00,0.1444
3427.00,0.1448
3426.00,0.1452
3425.00,0.1457
3424.00,0.1461
3423.00,0.1465
3422.00,0.1469
3421.00,0.1474
3420.00,0.1478
3419.00,0.1483
3418.00,0.1488
3417.00,0.1493
3416.00,0.1497
3415.00,0.1502
3414.00,0.1506
3413.00,0.1510
3412.00,0.1514
3411.00,0.1517
3410.00,0.1521
3409.00,0.1525
3408.00,0.1528
3407.00,0.1532
3406.00,0.1535
3405.00,0.1539
3404.00,0.1543
3403.00,0.1547
3402.00,0.1550
3401.00,0.1553
3400.00,0.1555
3399.00,0.1557
3398.00,0.1558
3397.00,0.1560
3396.00,0.1562
3395.00,0.1565
3394.00,0.1567
3393.00,0.1569
3392.00,0.1570
3391.00,0.1572
3390.00,0.1573
3389.00,0.1575
3388.00,0.1576
3387.00,0.1577
3386.00,0.1578
3385.00,0.1580
3384.00,0.1581
3383.00,0.1582
3382.00,0.1583
3381.00,0.1584
3380.00,0.1584
3379.00,0.1584
3378.00,0.1585
3377.00,0.1586
3376.00,0.1586
3375.00,0.1587
3374.00,0.1587
3373.00,0.1588
3372.00,0.1589
3371.00,0.1590
3370.00,0.1591
3369.00,0.1592
3368.00,0.1592
3367.00,0.1592
3366.00,0.1592
3365.00,0.1592
3364.00,0.1592
3363.00,0.1593
3362.00,0.1593
3361.00,0.1594
3360.00,0.1594
3359.00,0.1594
3358.00,0.1594
3357.00,0.1593
3356.00,0.1593
3355.00,0.1593
3354.00,0.1593
3353.00,0.1593
3352.00,0.1593
3351.00,0.1593
3350.00,0.1592
3349.00,0.1592
3348.00,0.1591
3347.00,0.1590
3346.00,0.1590
3345.00,0.1590
3344.00,0.1590
3343.00,0.1590
3342.00,0.1589
3341.00,0.1589
3340.00,0.1588
3339.00,0.1587
3338.00,0.1586
3337.00,0.1585
3336.00,0.1584
3335.00,0.1584
3334.00,0.1583
3333.00,0.1582
3332.00,0.1581
3331.00,0.1579
3330.00,0.1578
3329.00,0.1577
3328.00,0.1576
3327.00,0.1575
3326.00,0.1575
3325.00,0.1574
3324.00,0.1573
3323.00,0.1572
3322.00,0.1571
3321.00,0.1571
3320.00,0.1570
3319.00,0.1569
3318.00,0.1569
3317.00,0.1568
3316.00,0.1567
3315.00,0.1566
3314.00,0.1565
3313.00,0.1565
3312.00,0.1564
3311.00,0.1564
3310.00,0.1563
3309.00,0.1562
3308.00,0.1561
3307.00,0.1560
3306.00,0.1560
3305.00,0.1560
3304.00,0.1559
3303.00,0.1558
3302.00,0.1557
3301.00,0.1557
3300.00,0.1556
3299.00,0.1555
3298.00,0.1554
3297.00,0.1553
3296.00,0.1553
3295.00,0.1552
3294.00,0.1551
3293.00,0.1551
3292.00,0.1550
3291.00,0.1550
3290.00,0.1549
3289.00,0.1549
3288.00,0.1548
3287.00,0.1547
3286.00,0.1546
3285.00,0.1545
3284.00,0.1543
3283.00,0.1542
3282.00,0.1540
3281.00,0.1539
3280.00,0.1538
3279.00,0.1536
3278.00,0.1534
3277.00,0.1533
3276.00,0.1531
3275.00,0.1529
3274.00,0.1526
3273.00,0.1524
3272.00,0.1522
3271.00,0.1521
3270.00,0.1519
3269.00,0.1517
3268.00,0.1514
3267.00,0.1511
3266.00,0.1509
3265.00,0.1506
3264.00,0.1503
3263.00,0.1500
3262.00,0.1497
3261.00,0.1494
3260.00,0.1491
3259.00,0.1488
3258.00,0.1484
3257.00,0.1481
3256.00,0.1477
3255.00,0.1474
3254.00,0.1471
3253.00,0.1468
3252.00,0.1465
3251.00,0.1462
3250.00,0.1459
3249.00,0.1455
3248.00,0.1452
3247.00,0.1449
3246.00,0.1445
3245.00,0.1442
3244.00,0.1438
3243.00,0.1434
3242.00,0.1430
3241.00,0.1427
3240.00,0.1423
3239.00,0.1420
3238.00,0.1416
3237.00,0.1412
3236.00,0.1408
3235.00,0.1404
3234.00,0.1400
3233.00,0.1396
3232.00,0.1392
3231.00,0.1389
3230.00,0.1385
3229.00,0.1381
3228.00,0.1376
3227.00,0.1372
3226.00,0.1368
3225.00,0.1364
3224.00,0.1360
3223.00,0.1356
3222.00,0.1351
3221.00,0.1347
3220.00,0.1342
3219.00,0.1338
3218.00,0.1334
3217.00,0.1330
3216.00,0.1326
3215.00,0.1322
3214.00,0.1317
3213.00,0.1313
3212.00,0.1308
3211.00,0.1304
3210.00,0.1299
3209.00,0.1294
3208.00,0.1289
3207.00,0.1284
3206.00,0.1279
3205.00,0.1275
3204.00,0.1270
3203.00,0.1265
3202.00,0.1260
3201.00,0.1255
3200.00,0.1250
3199.00,0.1245
3198.00,0.1241
3197.00,0.1236
3196.00,0.1231
3195.00,0.1226
3194.00,0.1220
3193.00,0.1215
3192.00,0.1210
3191.00,0.1205
3190.00,0.1200
3189.00,0.1194
3188.00,0.1189
3187.00,0.1184
3186.00,0.1178
3185.00,0.1172
3184.00,0.1167
3183.00,0.1162
3182.00,0.1157
3181.00,0.1151
3180.00,0.1146
3179.00,0.1141
3178.00,0.1135
3177.00,0.1130
3176.00,0.1125
3175.00,0.1119
3174.00,0.1113
3173.00,0.1107
3172.00,0.1101
3171.00,0.1096
3170.00,0.1090
3169.00,0.1084
3168.00,0.1078
3167.00,0.1073
3166.00,0.1067
3165.00,0.1061
3164.00,0.1056
3163.00,0.1050
3162.00,0.1045
3161.00,0.1040
3160.00,0.1034
3159.00,0.1028
3158.00,0.1022
3157.00,0.1017
3156.00,0.1011
3155.00,0.1006
3154.00,0.1000
3153.00,0.0995
3152.00,0.0989
3151.00,0.0984
3150.00,0.0978
3149.00,0.0973
3148.00,0.0968
3147.00,0.0963
3146.00,0.0957
3145.00,0.0952
3144.00,0.0947
3143.00,0.0941
3142.00,0.0935
3141.00,0.0930
3140.00,0.0925
3139.00,0.0921
3138.00,0.0916
3137.00,0.0912
3136.00,0.0907
3135.00,0.0902
3134.00,0.0897
3133.00,0.0892
3132.00,0.0887
3131.00,0.0882
3130.00,0.0877
3129.00,0.0872
3128.00,0.0868
3127.00,0.0863
3126.00,0.0859
3125.00,0.0854
3124.00,0.0849
3123.00,0.0844
3122.00,0.0839
3121.00,0.0835
3120.00,0.0831
3119.00,0.0827
3118.00,0.0823
3117.00,0.0819
3116.00,0.0815
3115.00,0.0811
3114.00,0.0807
3113.00,0.0803
3112.00,0.0799
3111.00,0.0795
3110.00,0.0791
3109.00,0.0787
3108.00,0.0784
3107.00,0.0781
3106.00,0.0778
3105.00,0.0774
3104.00,0.0771
3103.00,0.0768
3102.00,0.0764
3101.00,0.0760
3100.00,0.0757
3099.00,0.0754
3098.00,0.0751
3097.00,0.0748
3096.00,0.0745
3095.00,0.0741
3094.00,0.0738
3093.00,0.0734
3092.00,0.0731
3091.00,0.0728
3090.00,0.0725
3089.00,0.0723
3088.00,0.0719
3087.00,0.0716
3086.00,0.0712
3085.00,0.0709
3084.00,0.0706
3083.00,0.0703
3082.00,0.0700
3081.00,0.0698
3080.00,0.0695
3079.00,0.0693
3078.00,0.0691
3077.00,0.0689
3076.00,0.0687
3075.00,0.0684
3074.00,0.0680
3073.00,0.0677
3072.00,0.0674
3071.00,0.0671
3070.00,0.0667
3069.00,0.0664
3068.00,0.0661
3067.00,0.0658
3066.00,0.0655
3065.00,0.0653
3064.00,0.0650
3063.00,0.0647
3062.00,0.0644
3061.00,0.0641
3060.00,0.0637
3059.00,0.0634
3058.00,0.0631
3057.00,0.0627
3056.00,0.0624
3055.00,0.0620
3054.00,0.0617
3053.00,0.0614
3052.00,0.0610
3051.00,0.0607
3050.00,0.0604
3049.00,0.0601
3048.00,0.0597
3047.00,0.0593
3046.00,0.0590
3045.00,0.0586
3044.00,0.0583
3043.00,0.0580
3042.00,0.0578
3041.00,0.0575
3040.00,0.0572
3039.00,0.0569
3038.00,0.0566
3037.00,0.0562
3036.00,0.0559
3035.00,0.0557
3034.00,0.0554
3033.00,0.0551
3032.00,0.0548
3031.00,0.0546
3030.00,0.0543
3029.00,0.0540
3028.00,0.0537
3027.00,0.0535
3026.00,0.0532
3025.00,0.0529
3024.00,0.0527
3023.00,0.0524
3022.00,0.0521
3021.00,0.0519
3020.00,0.0517
3019.00,0.0515
3018.00,0.0513
3017.00,0.0511
3016.00,0.0509
3015.00,0.0506
3014.00,0.0504
3013.00,0.0502
3012.00,0.0501
3011.00,0.0499
3010.00,0.0497
3009.00,0.0495
3008.00,0.0493
3007.00,0.0491
3006.00,0.0490
3005.00,0.0488
3004.00,0.0486
3003.00,0.0485
3002.00,0.0483
3001.00,0.0482
3000.00,0.0480
2999.00,0.0479
2998.00,0.0478
2997.00,0.0477
2996.00,0.0476
2995.00,0.0475
2994.00,0.0475
2993.00,0.0474
2992.00,0.0475
2991.00,0.0475
2990.00,0.0475
2989.00,0.0475
2988.00,0.0475
2987.00,0.0476
2986.00,0.0477
2985.00,0.0478
2984.00,0.0479
2983.00,0.0480
2982.00,0.0480
2981.00,0.0481
2980.00,0.0482
2979.00,0.0484
2978.00,0.0486
2977.00,0.0487
2976.00,0.0489
2975.00,0.0490
2974.00,0.0492
2973.00,0.0494
2972.00,0.0496
2971.00,0.0497
2970.00,0.0499
2969.00,0.0500
2968.00,0.0501
2967.00,0.0503
2966.00,0.0504
2965.00,0.0504
2964.00,0.0505
2963.00,0.0506
2962.00,0.0506
2961.00,0.0506
2960.00,0.0506
2959.00,0.0506
2958.00,0.0506
2957.00,0.0505
2956.00,0.0503
2955.00,0.0502
2954.00,0.0500
2953.00,0.0498
2952.00,0.0497
2951.00,0.0496
2950.00,0.0494
2949.00,0.0493
2948.00,0.0492
2947.00,0.0492
2946.00,0.0491
2945.00,0.0491
2944.00,0.0491
2943.00,0.0491
2942.00,0.0492
2941.00,0.0493
2940.00,0.0495
2939.00,0.0496
2938.00,0.0497
2937.00,0.0497
2936.00,0.0498
2935.00,0.0499
2934.00,0.0499
2933.00,0.0499
2932.00,0.0499
2931.00,0.0499
2930.00,0.0499
2929.00,0.0499
2928.00,0.0499
2927.00,0.0499
2926.00,0.0499
2925.00,0.0498
2924.00,0.0497
2923.00,0.0496
2922.00,0.0494
2921.00,0.0492
2920.00,0.0489
2919.00,0.0486
2918.00,0.0482
2917.00,0.0479
2916.00,0.0475
2915.00,0.0471
2914.00,0.0467
2913.00,0.0463
2912.00,0.0459
2911.00,0.0456
2910.00,0.0453
2909.00,0.0450
2908.00,0.0447
2907.00,0.0444
2906.00,0.0441
2905.00,0.0439
2904.00,0.0436
2903.00,0.0434
2902.00,0.0431
2901.00,0.0429
2900.00,0.0426
2899.00,0.0423
2898.00,0.0420
2897.00,0.0418
2896.00,0.0415
2895.00,0.0413
2894.00,0.0411
2893.00,0.0409
2892.00,0.0407
2891.00,0.0405
2890.00,0.0403
2889.00,0.0401
2888.00,0.0399
2887.00,0.0397
2886.00,0.0395
2885.00,0.0393
2884.00,0.0391
2883.00,0.0390
2882.00,0.0388
2881.00,0.0387
2880.00,0.0386
2879.00,0.0385
2878.00,0.0384
2877.00,0.0383
2876.00,0.0381
2875.00,0.0379
2874.00,0.0378
2873.00,0.0376
2872.00,0.0374
2871.00,0.0372
2870.00,0.0369
2869.00,0.0367
2868.00,0.0364
2867.00,0.0361
2866.00,0.0359
2865.00,0.0357
2864.00,0.0355
2863.00,0.0354
2862.00,0.0352
2861.00,0.0351
2860.00,0.0350
2859.00,0.0349
2858.00,0.0349
2857.00,0.0348
2856.00,0.0348
2855.00,0.0348
2854.00,0.0348
2853.00,0.0347
2852.00,0.0345
2851.00,0.0343
2850.00,0.0340
2849.00,0.0336
2848.00,0.0332
2847.00,0.0328
2846.00,0.0324
2845.00,0.0320
2844.00,0.0316
2843.00,0.0312
2842.00,0.0308
2841.00,0.0305
2840.00,0.0302
2839.00,0.0300
2838.00,0.0298
2837.00,0.0296
2836.00,0.0294
2835.00,0.0292
2834.00,0.0291
2833.00,0.0289
2832.00,0.0288
2831.00,0.0286
2830.00,0.0284
2829.00,0.0283
2828.00,0.0282
2827.00,0.0280
2826.00,0.0279
2825.00,0.0278
2824.00,0.0277
2823.00,0.0276
2822.00,0.0275
2821.00,0.0274
2820.00,0.0273
2819.00,0.0271
2818.00,0.0270
2817.00,0.0269
2816.00,0.0268
2815.00,0.0267
2814.00,0.0265
2813.00,0.0264
2812.00,0.0263
2811.00,0.0262
2810.00,0.0261
2809.00,0.0260
2808.00,0.0259
2807.00,0.0258
2806.00,0.0257
2805.00,0.0256
2804.00,0.0255
2803.00,0.0254
2802.00,0.0253
2801.00,0.0252
2800.00,0.0251
2799.00,0.0249
2798.00,0.0248
2797.00,0.0248
2796.00,0.0247
2795.00,0.0246
2794.00,0.0245
2793.00,0.0244
2792.00,0.0243
2791.00,0.0242
2790.00,0.0241
2789.00,0.0240
2788.00,0.0240
2787.00,0.0239
2786.00,0.0239
2785.00,0.0238
2784.00,0.0237
2783.00,0.0236
2782.00,0.0236
2781.00,0.0235
2780.00,0.0234
2779.00,0.0233
2778.00,0.0232
2777.00,0.0231
2776.00,0.0230
2775.00,0.0229
2774.00,0.0229
2773.00,0.0228
2772.00,0.0227
2771.00,0.0227
2770.00,0.0226
2769.00,0.0226
2768.00,0.0225
2767.00,0.0224
2766.00,0.0224
2765.00,0.0223
2764.00,0.0222
2763.00,0.0222
2762.00,0.0221
2761.00,0.0221
2760.00,0.0220
2759.00,0.0220
2758.00,0.0219
2757.00,0.0219
2756.00,0.0218
2755.00,0.0217
2754.00,0.0217
2753.00,0.0216
2752.00,0.0216
2751.00,0.0215
2750.00,0.0214
2749.00,0.0214
2748.00,0.0213
2747.00,0.0213
2746.00,0.0212
2745.00,0.0212
2744.00,0.0211
2743.00,0.0211
2742.00,0.0210
2741.00,0.0210
2740.00,0.0209
2739.00,0.0209
2738.00,0.0208
2737.00,0.0208
2736.00,0.0207
2735.00,0.0207
2734.00,0.0206
2733.00,0.0206
2732.00,0.0206
2731.00,0.0205
2730.00,0.0205
2729.00,0.0204
2728.00,0.0203
2727.00,0.0203
2726.00,0.0202
2725.00,0.0201
2724.00,0.0201
2723.00,0.0200
2722.00,0.0200
2721.00,0.0199
2720.00,0.0199
2719.00,0.0198
2718.00,0.0198
2717.00,0.0198
2716.00,0.0198
2715.00,0.0197
2714.00,0.0196
2713.00,0.0196
2712.00,0.0195
2711.00,0.0194
2710.00,0.0194
2709.00,0.0194
2708.00,0.0193
2707.00,0.0193
2706.00,0.0193
2705.00,0.0192
2704.00,0.0192
2703.00,0.0192
2702.00,0.0191
2701.00,0.0191
2700.00,0.0191
2699.00,0.0190
2698.00,0.0190
2697.00,0.0190
2696.00,0.0189
2695.00,0.0189
2694.00,0.0188
2693.00,0.0188
2692.00,0.0187
2691.00,0.0187
2690.00,0.0186
2689.00,0.0186
2688.00,0.0185
2687.00,0.0185
2686.00,0.0185
2685.00,0.0184
2684.00,0.0184
2683.00,0.0184
2682.00,0.0184
2681.00,0.0184
2680.00,0.0183
2679.00,0.0183
2678.00,0.0183
2677.00,0.0182
2676.00,0.0182
2675.00,0.0181
2674.00,0.0181
2673.00,0.0181
2672.00,0.0180
2671.00,0.0180
2670.00,0.0180
2669.00,0.0180
2668.00,0.0180
2667.00,0.0179
2666.00,0.0179
2665.00,0.0179
2664.00,0.0179
2663.00,0.0179
2662.00,0.0179
2661.00,0.0179
2660.00,0.0179
2659.00,0.0179
2658.00,0.0179
2657.00,0.0178
2656.00,0.0178
2655.00,0.0177
2654.00,0.0176
2653.00,0.0176
2652.00,0.0176
2651.00,0.0176
2650.00,0.0176
2649.00,0.0175
2648.00,0.0174
2647.00,0.0174
2646.00,0.0173
2645.00,0.0173
2644.00,0.0172
2643.00,0.0172
2642.00,0.0172
2641.00,0.0172
2640.00,0.0171
2639.00,0.0170
2638.00,0.0169
2637.00,0.0169
2636.00,0.0168
2635.00,0.0168
2634.00,0.0167
2633.00,0.0167
2632.00,0.0166
2631.00,0.0166
2630.00,0.0166
2629.00,0.0165
2628.00,0.0165
2627.00,0.0164
2626.00,0.0164
2625.00,0.0163
2624.00,0.0163
2623.00,0.0163
2622.00,0.0162
2621.00,0.0162
2620.00,0.0161
2619.00,0.0161
2618.00,0.0160
2617.00,0.0160
2616.00,0.0160
2615.00,0.0159
2614.00,0.0158
2613.00,0.0158
2612.00,0.0158
2611.00,0.0157
2610.00,0.0157
2609.00,0.0157
2608.00,0.0157
2607.00,0.0156
2606.00,0.0156
2605.00,0.0156
2604.00,0.0156
2603.00,0.0155
2602.00,0.0154
2601.00,0.0153
2600.00,0.0153
2599.00,0.0153
2598.00,0.0153
2597.00,0.0153
2596.00,0.0153
2595.00,0.0153
2594.00,0.0153
2593.00,0.0152
2592.00,0.0151
2591.00,0.0151
2590.00,0.0150
2589.00,0.0150
2588.00,0.0149
2587.00,0.0148
2586.00,0.0148
2585.00,0.0148
2584.00,0.0148
2583.00,0.0148
2582.00,0.0148
2581.00,0.0148
2580.00,0.0148
2579.00,0.0148
2578.00,0.0148
2577.00,0.0148
2576.00,0.0147
2575.00,0.0147
2574.00,0.0146
2573.00,0.0145
2572.00,0.0145
2571.00,0.0145
2570.00,0.0144
2569.00,0.0144
2568.00,0.0144
2567.00,0.0143
2566.00,0.0143
2565.00,0.0143
2564.00,0.0143
2563.00,0.0143
2562.00,0.0143
2561.00,0.0143
2560.00,0.0143
2559.00,0.0143
2558.00,0.0143
2557.00,0.0142
2556.00,0.0141
2555.00,0.0141
2554.00,0.0140
2553.00,0.0140
2552.00,0.0140
2551.00,0.0141
2550.00,0.0141
2549.00,0.0140
2548.00,0.0140
2547.00,0.0140
2546.00,0.0139
2545.00,0.0139
2544.00,0.0139
2543.00,0.0138
2542.00,0.0138
2541.00,0.0137
2540.00,0.0137
2539.00,0.0137
2538.00,0.0138
2537.00,0.0138
2536.00,0.0138
2535.00,0.0138
2534.00,0.0138
2533.00,0.0138
2532.00,0.0138
2531.00,0.0137
2530.00,0.0136
2529.00,0.0136
2528.00,0.0136
2527.00,0.0137
2526.00,0.0137
2525.00,0.0137
2524.00,0.0136
2523.00,0.0136
2522.00,0.0135
2521.00,0.0135
2520.00,0.0135
2519.00,0.0135
2518.00,0.0135
2517.00,0.0134
2516.00,0.0134
2515.00,0.0134
2514.00,0.0134
2513.00,0.0135
2512.00,0.0135
2511.00,0.0135
2510.00,0.0135
2509.00,0.0135
2508.00,0.0134
2507.00,0.0134
2506.00,0.0134
2505.00,0.0134
2504.00,0.0134
2503.00,0.0134
2502.00,0.0133
2501.00,0.0133
2500.00,0.0132
2499.00,0.0132
2498.00,0.0132
2497.00,0.0133
2496.00,0.0133
2495.00,0.0133
2494.00,0.0133
2493.00,0.0132
2492.00,0.0132
2491.00,0.0132
2490.00,0.0133
2489.00,0.0133
2488.00,0.0134
2487.00,0.0133
2486.00,0.0133
2485.00,0.0133
2484.00,0.0132
2483.00,0.0132
2482.00,0.0132
2481.00,0.0132
2480.00,0.0132
2479.00,0.0132
2478.00,0.0132
2477.00,0.0131
2476.00,0.0131
2475.00,0.0131
2474.00,0.0130
2473.00,0.0130
2472.00,0.0130
2471.00,0.0131
2470.00,0.0131
2469.00,0.0131
2468.00,0.0131
2467.00,0.0131
2466.00,0.0130
2465.00,0.0130
2464.00,0.0130
2463.00,0.0130
2462.00,0.0130
2461.00,0.0131
2460.00,0.0131
2459.00,0.0132
2458.00,0.0132
2457.00,0.0132
2456.00,0.0132
2455.00,0.0132
2454.00,0.0131
2453.00,0.0131
2452.00,0.0130
2451.00,0.0130
2450.00,0.0129
2449.00,0.0129
2448.00,0.0129
2447.00,0.0129
2446.00,0.0129
2445.00,0.0129
2444.00,0.0129
2443.00,0.0129
2442.00,0.0129
2441.00,0.0129
2440.00,0.0129
2439.00,0.0129
2438.00,0.0128
2437.00,0.0128
2436.00,0.0128
2435.00,0.0128
2434.00,0.0127
2433.00,0.0127
2432.00,0.0127
2431.00,0.0127
2430.00,0.0127
2429.00,0.0127
2428.00,0.0127
2427.00,0.0127
2426.00,0.0128
2425.00,0.0128
2424.00,0.0128
2423.00,0.0128
2422.00,0.0127
2421.00,0.0127
2420.00,0.0127
2419.00,0.0127
2418.00,0.0127
2417.00,0.0127
2416.00,0.0127
2415.00,0.0127
2414.00,0.0127
2413.00,0.0127
2412.00,0.0127
2411.00,0.0127
2410.00,0.0128
2409.00,0.0128
2408.00,0.0128
2407.00,0.0127
2406.00,0.0127
2405.00,0.0126
2404.00,0.0126
2403.00,0.0126
2402.00,0.0125
2401.00,0.0126
2400.00,0.0126
2399.00,0.0126
2398.00,0.0126
2397.00,0.0126
2396.00,0.0126
2395.00,0.0127
2394.00,0.0127
2393.00,0.0128
2392.00,0.0128
2391.00,0.0128
2390.00,0.0128
2389.00,0.0128
2388.00,0.0128
2387.00,0.0128
2386.00,0.0128
2385.00,0.0128
2384.00,0.0128
2383.00,0.0128
2382.00,0.0128
2381.00,0.0128
2380.00,0.0128
2379.00,0.0128
2378.00,0.0128
2377.00,0.0128
2376.00,0.0128
2375.00,0.0129
2374.00,0.0130
2373.00,0.0130
2372.00,0.0130
2371.00,0.0130
2370.00,0.0130
2369.00,0.0129
2368.00,0.0129
2367.00,0.0130
2366.00,0.0131
2365.00,0.0132
2364.00,0.0133
2363.00,0.0134
2362.00,0.0134
2361.00,0.0134
2360.00,0.0134
2359.00,0.0133
2358.00,0.0133
2357.00,0.0133
2356.00,0.0134
2355.00,0.0134
2354.00,0.0134
2353.00,0.0134
2352.00,0.0134
2351.00,0.0132
2350.00,0.0132
2349.00,0.0133
2348.00,0.0136
2347.00,0.0140
2346.00,0.0142
2345.00,0.0142
2344.00,0.0141
2343.00,0.0139
2342.00,0.0139
2341.00,0.0140
2340.00,0.0140
2339.00,0.0139
2338.00,0.0139
2337.00,0.0139
2336.00,0.0138
2335.00,0.0138
2334.00,0.0138
2333.00,0.0137
2332.00,0.0137
2331.00,0.0136
2330.00,0.0136
2329.00,0.0136
2328.00,0.0138
2327.00,0.0142
2326.00,0.0146
2325.00,0.0150
2324.00,0.0152
2323.00,0.0151
2322.00,0.0149
2321.00,0.0146
2320.00,0.0145
2319.00,0.0143
2318.00,0.0143
2317.00,0.0143
2316.00,0.0142
2315.00,0.0142
2314.00,0.0141
2313.00,0.0141
2312.00,0.0140
2311.00,0.0140
2310.00,0.0140
2309.00,0.0140
2308.00,0.0139
2307.00,0.0139
2306.00,0.0139
2305.00,0.0139
2304.00,0.0139
2303.00,0.0140
2302.00,0.0141
2301.00,0.0142
2300.00,0.0142
2299.00,0.0143
2298.00,0.0144
2297.00,0.0144
2296.00,0.0144
2295.00,0.0145
2294.00,0.0145
2293.00,0.0145
2292.00,0.0146
2291.00,0.0146
2290.00,0.0147
2289.00,0.0148
2288.00,0.0148
2287.00,0.0148
2286.00,0.0148
2285.00,0.0148
2284.00,0.0148
2283.00,0.0149
2282.00,0.0149
2281.00,0.0149
2280.00,0.0149
2279.00,0.0148
2278.00,0.0146
2277.00,0.0145
2276.00,0.0143
2275.00,0.0142
2274.00,0.0142
2273.00,0.0142
2272.00,0.0143
2271.00,0.0143
2270.00,0.0143
2269.00,0.0143
2268.00,0.0142
2267.00,0.0141
2266.00,0.0141
2265.00,0.0140
2264.00,0.0140
2263.00,0.0140
2262.00,0.0140
2261.00,0.0140
2260.00,0.0139
2259.00,0.0139
2258.00,0.0139
2257.00,0.0139
2256.00,0.0139
2255.00,0.0139
2254.00,0.0139
2253.00,0.0139
2252.00,0.0139
2251.00,0.0138
2250.00,0.0138
2249.00,0.0138
2248.00,0.0138
2247.00,0.0138
2246.00,0.0138
2245.00,0.0138
2244.00,0.0138
2243.00,0.0138
2242.00,0.0138
2241.00,0.0138
2240.00,0.0138
2239.00,0.0137
2238.00,0.0136
2237.00,0.0135
2236.00,0.0135
2235.00,0.0136
2234.00,0.0136
2233.00,0.0136
2232.00,0.0136
2231.00,0.0136
2230.00,0.0136
2229.00,0.0136
2228.00,0.0136
2227.00,0.0136
2226.00,0.0136
2225.00,0.0136
2224.00,0.0137
2223.00,0.0136
2222.00,0.0136
2221.00,0.0136
2220.00,0.0137
2219.00,0.0137
2218.00,0.0137
2217.00,0.0136
2216.00,0.0137
2215.00,0.0137
2214.00,0.0136
2213.00,0.0135
2212.00,0.0135
2211.00,0.0134
2210.00,0.0134
2209.00,0.0134
2208.00,0.0134
2207.00,0.0134
2206.00,0.0133
2205.00,0.0132
2204.00,0.0132
2203.00,0.0133
2202.00,0.0135
2201.00,0.0136
2200.00,0.0136
2199.00,0.0134
2198.00,0.0132
2197.00,0.0129
2196.00,0.0127
2195.00,0.0126
2194.00,0.0127
2193.00,0.0128
2192.00,0.0130
2191.00,0.0132
2190.00,0.0135
2189.00,0.0138
2188.00,0.0139
2187.00,0.0139
2186.00,0.0137
2185.00,0.0134
2184.00,0.0133
2183.00,0.0131
2182.00,0.0130
2181.00,0.0131
2180.00,0.0132
2179.00,0.0132
2178.00,0.0131
2177.00,0.0131
2176.00,0.0131
2175.00,0.0130
2174.00,0.0129
2173.00,0.0128
2172.00,0.0126
2171.00,0.0126
2170.00,0.0129
2169.00,0.0133
2168.00,0.0137
2167.00,0.0138
2166.00,0.0136
2165.00,0.0134
2164.00,0.0131
2163.00,0.0130
2162.00,0.0129
2161.00,0.0126
2160.00,0.0117
2159.00,0.0105
2158.00,0.0092
2157.00,0.0086
2156.00,0.0085
2155.00,0.0088
2154.00,0.0092
2153.00,0.0096
2152.00,0.0099
2151.00,0.0103
2150.00,0.0107
2149.00,0.0111
2148.00,0.0112
2147.00,0.0111
2146.00,0.0108
2145.00,0.0108
2144.00,0.0109
2143.00,0.0110
2142.00,0.0111
2141.00,0.0111
2140.00,0.0111
2139.00,0.0112
2138.00,0.0113
2137.00,0.0114
2136.00,0.0115
2135.00,0.0114
2134.00,0.0114
2133.00,0.0115
2132.00,0.0116
2131.00,0.0119
2130.00,0.0121
2129.00,0.0124
2128.00,0.0127
2127.00,0.0129
2126.00,0.0130
2125.00,0.0130
2124.00,0.0132
2123.00,0.0133
2122.00,0.0134
2121.00,0.0135
2120.00,0.0135
2119.00,0.0134
2118.00,0.0135
2117.00,0.0136
2116.00,0.0139
2115.00,0.0142
2114.00,0.0142
2113.00,0.0142
2112.00,0.0141
2111.00,0.0140
2110.00,0.0140
2109.00,0.0141
2108.00,0.0142
2107.00,0.0143
2106.00,0.0144
2105.00,0.0144
2104.00,0.0143
2103.00,0.0142
2102.00,0.0141
2101.00,0.0141
2100.00,0.0141
2099.00,0.0140
2098.00,0.0139
2097.00,0.0138
2096.00,0.0136
2095.00,0.0133
2094.00,0.0131
2093.00,0.0131
2092.00,0.0131
2091.00,0.0133
2090.00,0.0134
2089.00,0.0135
2088.00,0.0136
2087.00,0.0135
2086.00,0.0135
2085.00,0.0136
2084.00,0.0137
2083.00,0.0137
2082.00,0.0137
2081.00,0.0137
2080.00,0.0138
2079.00,0.0139
2078.00,0.0139
2077.00,0.0138
2076.00,0.0137
2075.00,0.0136
2074.00,0.0135
2073.00,0.0135
2072.00,0.0134
2071.00,0.0133
2070.00,0.0131
2069.00,0.0130
2068.00,0.0129
2067.00,0.0128
2066.00,0.0126
2065.00,0.0125
2064.00,0.0124
2063.00,0.0124
2062.00,0.0124
2061.00,0.0124
2060.00,0.0124
2059.00,0.0124
2058.00,0.0123
2057.00,0.0122
2056.00,0.0122
2055.00,0.0121
2054.00,0.0121
2053.00,0.0123
2052.00,0.0125
2051.00,0.0126
2050.00,0.0124
2049.00,0.0119
2048.00,0.0115
2047.00,0.0112
2046.00,0.0111
2045.00,0.0112
2044.00,0.0113
2043.00,0.0113
2042.00,0.0113
2041.00,0.0113
2040.00,0.0113
2039.00,0.0113
2038.00,0.0113
2037.00,0.0113
2036.00,0.0110
2035.00,0.0105
2034.00,0.0099
2033.00,0.0095
2032.00,0.0093
2031.00,0.0094
2030.00,0.0094
2029.00,0.0094
2028.00,0.0092
2027.00,0.0090
2026.00,0.0088
2025.00,0.0088
2024.00,0.0091
2023.00,0.0093
2022.00,0.0095
2021.00,0.0096
2020.00,0.0097
2019.00,0.0097
2018.00,0.0095
2017.00,0.0095
2016.00,0.0094
2015.00,0.0094
2014.00,0.0093
2013.00,0.0092
2012.00,0.0090
2011.00,0.0089
2010.00,0.0090
2009.00,0.0091
2008.00,0.0091
2007.00,0.0089
2006.00,0.0087
2005.00,0.0086
2004.00,0.0088
2003.00,0.0089
2002.00,0.0091
2001.00,0.0093
2000.00,0.0096
1999.00,0.0099
1998.00,0.0101
1997.00,0.0103
1996.00,0.0104
1995.00,0.0104
1994.00,0.0103
1993.00,0.0103
1992.00,0.0105
1991.00,0.0105
1990.00,0.0105
1989.00,0.0104
1988.00,0.0102
1987.00,0.0100
1986.00,0.0099
1985.00,0.0099
1984.00,0.0102
1983.00,0.0106
1982.00,0.0108
1981.00,0.0108
1980.00,0.0106
1979.00,0.0102
1978.00,0.0098
1977.00,0.0095
1976.00,0.0094
1975.00,0.0092
1974.00,0.0090
1973.00,0.0088
1972.00,0.0088
1971.00,0.0088
1970.00,0.0087
1969.00,0.0087
1968.00,0.0086
1967.00,0.0086
1966.00,0.0087
1965.00,0.0089
1964.00,0.0092
1963.00,0.0093
1962.00,0.0093
1961.00,0.0093
1960.00,0.0093
1959.00,0.0092
1958.00,0.0089
1957.00,0.0089
1956.00,0.0091
1955.00,0.0093
1954.00,0.0094
1953.00,0.0093
1952.00,0.0093
1951.00,0.0092
1950.00,0.0091
1949.00,0.0091
1948.00,0.0092
1947.00,0.0093
1946.00,0.0094
1945.00,0.0095
1944.00,0.0097
1943.00,0.0097
1942.00,0.0096
1941.00,0.0096
1940.00,0.0096
1939.00,0.0096
1938.00,0.0096
1937.00,0.0096
1936.00,0.0097
1935.00,0.0097
1934.00,0.0097
1933.00,0.0096
1932.00,0.0095
1931.00,0.0094
1930.00,0.0094
1929.00,0.0094
1928.00,0.0095
1927.00,0.0095
1926.00,0.0095
1925.00,0.0096
1924.00,0.0097
1923.00,0.0097
1922.00,0.0098
1921.00,0.0099
1920.00,0.0100
1919.00,0.0100
1918.00,0.0100
1917.00,0.0099
1916.00,0.0099
1915.00,0.0099
1914.00,0.0099
1913.00,0.0099
1912.00,0.0100
1911.00,0.0100
1910.00,0.0100
1909.00,0.0098
1908.00,0.0096
1907.00,0.0095
1906.00,0.0094
1905.00,0.0093
1904.00,0.0093
1903.00,0.0093
1902.00,0.0094
1901.00,0.0095
1900.00,0.0097
1899.00,0.0098
1898.00,0.0098
1897.00,0.0098
1896.00,0.0097
1895.00,0.0097
1894.00,0.0096
1893.00,0.0095
1892.00,0.0095
1891.00,0.0094
1890.00,0.0094
1889.00,0.0093
1888.00,0.0093
1887.00,0.0093
1886.00,0.0094
1885.00,0.0094
1884.00,0.0093
1883.00,0.0093
1882.00,0.0093
1881.00,0.0094
1880.00,0.0094
1879.00,0.0093
1878.00,0.0092
1877.00,0.0091
1876.00,0.0091
1875.00,0.0091
1874.00,0.0092
1873.00,0.0092
1872.00,0.0093
1871.00,0.0094
1870.00,0.0094
1869.00,0.0094
1868.00,0.0093
1867.00,0.0091
1866.00,0.0091
1865.00,0.0091
1864.00,0.0091
1863.00,0.0091
1862.00,0.0090
1861.00,0.0089
1860.00,0.0089
1859.00,0.0090
1858.00,0.0090
1857.00,0.0090
1856.00,0.0090
1855.00,0.0090
1854.00,0.0089
1853.00,0.0089
1852.00,0.0089
1851.00,0.0089
1850.00,0.0088
1849.00,0.0088
1848.00,0.0088
1847.00,0.0089
1846.00,0.0091
1845.00,0.0092
1844.00,0.0092
1843.00,0.0090
1842.00,0.0089
1841.00,0.0088
1840.00,0.0089
1839.00,0.0089
1838.00,0.0088
1837.00,0.0088
1836.00,0.0087
1835.00,0.0087
1834.00,0.0087
1833.00,0.0088
1832.00,0.0090
1831.00,0.0091
1830.00,0.0091
1829.00,0.0090
1828.00,0.0090
1827.00,0.0090
1826.00,0.0090
1825.00,0.0090
1824.00,0.0090
1823.00,0.0090
1822.00,0.0090
1821.00,0.0090
1820.00,0.0089
1819.00,0.0089
1818.00,0.0088
1817.00,0.0087
1816.00,0.0086
1815.00,0.0086
1814.00,0.0087
1813.00,0.0088
1812.00,0.0089
1811.00,0.0089
1810.00,0.0089
1809.00,0.0089
1808.00,0.0089
1807.00,0.0089
1806.00,0.0088
1805.00,0.0088
1804.00,0.0088
1803.00,0.0088
1802.00,0.0089
1801.00,0.0089
1800.00,0.0089
1799.00,0.0089
1798.00,0.0089
1797.00,0.0089
1796.00,0.0089
1795.00,0.0090
1794.00,0.0090
1793.00,0.0091
1792.00,0.0090
1791.00,0.0089
1790.00,0.0088
1789.00,0.0088
1788.00,0.0088
1787.00,0.0088
1786.00,0.0088
1785.00,0.0087
1784.00,0.0087
1783.00,0.0087
1782.00,0.0088
1781.00,0.0089
1780.00,0.0089
1779.00,0.0088
1778.00,0.0088
1777.00,0.0088
1776.00,0.0088
1775.00,0.0088
1774.00,0.0089
1773.00,0.0090
1772.00,0.0090
1771.00,0.0089
1770.00,0.0089
1769.00,0.0089
1768.00,0.0089
1767.00,0.0088
1766.00,0.0087
1765.00,0.0087
1764.00,0.0088
1763.00,0.0088
1762.00,0.0088
1761.00,0.0087
1760.00,0.0089
1759.00,0.0091
1758.00,0.0093
1757.00,0.0095
1756.00,0.0096
1755.00,0.0097
1754.00,0.0099
1753.00,0.0103
1752.00,0.0108
1751.00,0.0112
1750.00,0.0114
1749.00,0.0117
1748.00,0.0120
1747.00,0.0122
1746.00,0.0124
1745.00,0.0126
1744.00,0.0128
1743.00,0.0129
1742.00,0.0131
1741.00,0.0133
1740.00,0.0136
1739.00,0.0137
1738.00,0.0137
1737.00,0.0138
1736.00,0.0141
1735.00,0.0145
1734.00,0.0147
1733.00,0.0148
1732.00,0.0150
1731.00,0.0152
1730.00,0.0154
1729.00,0.0155
1728.00,0.0157
1727.00,0.0159
1726.00,0.0161
1725.00,0.0164
1724.00,0.0167
1723.00,0.0170
1722.00,0.0172
1721.00,0.0175
1720.00,0.0178
1719.00,0.0184
1718.00,0.0189
1717.00,0.0196
1716.00,0.0201
1715.00,0.0206
1714.00,0.0209
1713.00,0.0212
1712.00,0.0216
1711.00,0.0221
1710.00,0.0225
1709.00,0.0231
1708.00,0.0237
1707.00,0.0245
1706.00,0.0253
1705.00,0.0261
1704.00,0.0267
1703.00,0.0273
1702.00,0.0281
1701.00,0.0295
1700.00,0.0313
1699.00,0.0330
1698.00,0.0345
1697.00,0.0362
1696.00,0.0380
1695.00,0.0398
1694.00,0.0413
1693.00,0.0428
1692.00,0.0445
1691.00,0.0462
1690.00,0.0481
1689.00,0.0500
1688.00,0.0517
1687.00,0.0533
1686.00,0.0550
1685.00,0.0574
1684.00,0.0604
1683.00,0.0631
1682.00,0.0651
1681.00,0.0668
1680.00,0.0685
1679.00,0.0701
1678.00,0.0715
1677.00,0.0731
1676.00,0.0753
1675.00,0.0778
1674.00,0.0801
1673.00,0.0821
1672.00,0.0840
1671.00,0.0860
1670.00,0.0884
1669.00,0.0911
1668.00,0.0937
1667.00,0.0958
1666.00,0.0976
1665.00,0.0994
1664.00,0.1015
1663.00,0.1042
1662.00,0.1070
1661.00,0.1096
1660.00,0.1119
1659.00,0.1141
1658.00,0.1158
1657.00,0.1172
1656.00,0.1182
1655.00,0.1191
1654.00,0.1210
1653.00,0.1245
1652.00,0.1281
1651.00,0.1303
1650.00,0.1311
1649.00,0.1315
1648.00,0.1321
1647.00,0.1332
1646.00,0.1346
1645.00,0.1358
1644.00,0.1366
1643.00,0.1370
1642.00,0.1372
1641.00,0.1373
1640.00,0.1374
1639.00,0.1375
1638.00,0.1373
1637.00,0.1372
1636.00,0.1375
1635.00,0.1381
1634.00,0.1384
1633.00,0.1381
1632.00,0.1374
1631.00,0.1365
1630.00,0.1353
1629.00,0.1341
1628.00,0.1331
1627.00,0.1320
1626.00,0.1307
1625.00,0.1293
1624.00,0.1277
1623.00,0.1261
1622.00,0.1245
1621.00,0.1228
1620.00,0.1209
1619.00,0.1188
1618.00,0.1164
1617.00,0.1139
1616.00,0.1114
1615.00,0.1092
1614.00,0.1071
1613.00,0.1048
1612.00,0.1023
1611.00,0.0999
1610.00,0.0975
1609.00,0.0952
1608.00,0.0930
1607.00,0.0909
1606.00,0.0889
1605.00,0.0869
1604.00,0.0849
1603.00,0.0829
1602.00,0.0810
1601.00,0.0791
1600.00,0.0773
1599.00,0.0756
1598.00,0.0739
1597.00,0.0723
1596.00,0.0707
1595.00,0.0692
1594.00,0.0677
1593.00,0.0663
1592.00,0.0648
1591.00,0.0635
1590.00,0.0623
1589.00,0.0611
1588.00,0.0600
1587.00,0.0590
1586.00,0.0581
1585.00,0.0572
1584.00,0.0564
1583.00,0.0557
1582.00,0.0552
1581.00,0.0546
1580.00,0.0540
1579.00,0.0535
1578.00,0.0532
1577.00,0.0530
1576.00,0.0529
1575.00,0.0529
1574.00,0.0529
1573.00,0.0528
1572.00,0.0527
1571.00,0.0526
1570.00,0.0528
1569.00,0.0532
1568.00,0.0536
1567.00,0.0540
1566.00,0.0543
1565.00,0.0547
1564.00,0.0549
1563.00,0.0550
1562.00,0.0550
1561.00,0.0551
1560.00,0.0558
1559.00,0.0575
1558.00,0.0594
1557.00,0.0605
1556.00,0.0612
1555.00,0.0617
1554.00,0.0624
1553.00,0.0629
1552.00,0.0634
1551.00,0.0639
1550.00,0.0643
1549.00,0.0647
1548.00,0.0649
1547.00,0.0650
1546.00,0.0650
1545.00,0.0649
1544.00,0.0646
1543.00,0.0644
1542.00,0.0642
1541.00,0.0640
1540.00,0.0636
1539.00,0.0630
1538.00,0.0623
1537.00,0.0616
1536.00,0.0607
1535.00,0.0598
1534.00,0.0588
1533.00,0.0577
1532.00,0.0568
1531.00,0.0560
1530.00,0.0551
1529.00,0.0542
1528.00,0.0531
1527.00,0.0520
1526.00,0.0510
1525.00,0.0500
1524.00,0.0491
1523.00,0.0483
1522.00,0.0475
1521.00,0.0466
1520.00,0.0458
1519.00,0.0451
1518.00,0.0442
1517.00,0.0432
1516.00,0.0420
1515.00,0.0408
1514.00,0.0396
1513.00,0.0383
1512.00,0.0370
1511.00,0.0356
1510.00,0.0343
1509.00,0.0332
1508.00,0.0320
1507.00,0.0306
1506.00,0.0292
1505.00,0.0279
1504.00,0.0269
1503.00,0.0260
1502.00,0.0251
1501.00,0.0241
1500.00,0.0231
1499.00,0.0222
1498.00,0.0214
1497.00,0.0206
1496.00,0.0199
1495.00,0.0192
1494.00,0.0187
1493.00,0.0182
1492.00,0.0179
1491.00,0.0176
1490.00,0.0172
1489.00,0.0167
1488.00,0.0163
1487.00,0.0160
1486.00,0.0156
1485.00,0.0154
1484.00,0.0152
1483.00,0.0152
1482.00,0.0153
1481.00,0.0154
1480.00,0.0156
1479.00,0.0159
1478.00,0.0162
1477.00,0.0166
1476.00,0.0170
1475.00,0.0176
1474.00,0.0184
1473.00,0.0193
1472.00,0.0202
1471.00,0.0208
1470.00,0.0212
1469.00,0.0215
1468.00,0.0218
1467.00,0.0220
1466.00,0.0223
1465.00,0.0228
1464.00,0.0233
1463.00,0.0238
1462.00,0.0242
1461.00,0.0245
1460.00,0.0247
1459.00,0.0250
1458.00,0.0256
1457.00,0.0264
1456.00,0.0272
1455.00,0.0275
1454.00,0.0276
1453.00,0.0276
1452.00,0.0274
1451.00,0.0273
1450.00,0.0272
1449.00,0.0271
1448.00,0.0271
1447.00,0.0271
1446.00,0.0270
1445.00,0.0270
1444.00,0.0269
1443.00,0.0268
1442.00,0.0268
1441.00,0.0267
1440.00,0.0267
1439.00,0.0266
1438.00,0.0265
1437.00,0.0267
1436.00,0.0270
1435.00,0.0273
1434.00,0.0275
1433.00,0.0276
1432.00,0.0277
1431.00,0.0279
1430.00,0.0282
1429.00,0.0285
1428.00,0.0288
1427.00,0.0291
1426.00,0.0294
1425.00,0.0297
1424.00,0.0301
1423.00,0.0303
1422.00,0.0304
1421.00,0.0304
1420.00,0.0307
1419.00,0.0311
1418.00,0.0315
1417.00,0.0318
1416.00,0.0319
1415.00,0.0319
1414.00,0.0317
1413.00,0.0316
1412.00,0.0315
1411.00,0.0313
1410.00,0.0311
1409.00,0.0309
1408.00,0.0307
1407.00,0.0304
1406.00,0.0300
1405.00,0.0297
1404.00,0.0295
1403.00,0.0291
1402.00,0.0287
1401.00,0.0283
1400.00,0.0278
1399.00,0.0274
1398.00,0.0270
1397.00,0.0265
1396.00,0.0261
1395.00,0.0257
1394.00,0.0252
1393.00,0.0249
1392.00,0.0246
1391.00,0.0244
1390.00,0.0241
1389.00,0.0239
1388.00,0.0238
1387.00,0.0239
1386.00,0.0240
1385.00,0.0241
1384.00,0.0242
1383.00,0.0244
1382.00,0.0245
1381.00,0.0247
1380.00,0.0248
1379.00,0.0249
1378.00,0.0249
1377.00,0.0250
1376.00,0.0250
1375.00,0.0249
1374.00,0.0247
1373.00,0.0244
1372.00,0.0242
1371.00,0.0239
1370.00,0.0236
1369.00,0.0233
1368.00,0.0229
1367.00,0.0224
1366.00,0.0219
1365.00,0.0214
1364.00,0.0208
1363.00,0.0204
1362.00,0.0200
1361.00,0.0196
1360.00,0.0192
1359.00,0.0189
1358.00,0.0186
1357.00,0.0182
1356.00,0.0179
1355.00,0.0176
1354.00,0.0173
1353.00,0.0170
1352.00,0.0167
1351.00,0.0162
1350.00,0.0158
1349.00,0.0153
1348.00,0.0149
1347.00,0.0145
1346.00,0.0141
1345.00,0.0136
1344.00,0.0132
1343.00,0.0128
1342.00,0.0124
1341.00,0.0121
1340.00,0.0117
1339.00,0.0113
1338.00,0.0110
1337.00,0.0107
1336.00,0.0103
1335.00,0.0100
1334.00,0.0097
1333.00,0.0094
1332.00,0.0091
1331.00,0.0089
1330.00,0.0088
1329.00,0.0087
1328.00,0.0087
1327.00,0.0087
1326.00,0.0087
1325.00,0.0087
1324.00,0.0088
1323.00,0.0089
1322.00,0.0090
1321.00,0.0092
1320.00,0.0093
1319.00,0.0095
1318.00,0.0096
1317.00,0.0096
1316.00,0.0097
1315.00,0.0098
1314.00,0.0098
1313.00,0.0099
1312.00,0.0099
1311.00,0.0100
1310.00,0.0100
1309.00,0.0101
1308.00,0.0102
1307.00,0.0103
1306.00,0.0105
1305.00,0.0108
1304.00,0.0111
1303.00,0.0115
1302.00,0.0119
1301.00,0.0124
1300.00,0.0130
1299.00,0.0136
1298.00,0.0143
1297.00,0.0152
1296.00,0.0160
1295.00,0.0170
1294.00,0.0181
1293.00,0.0192
1292.00,0.0205
1291.00,0.0219
1290.00,0.0233
1289.00,0.0249
1288.00,0.0266
1287.00,0.0285
1286.00,0.0303
1285.00,0.0323
1284.00,0.0344
1283.00,0.0366
1282.00,0.0388
1281.00,0.0411
1280.00,0.0434
1279.00,0.0458
1278.00,0.0483
1277.00,0.0507
1276.00,0.0532
1275.00,0.0557
1274.00,0.0582
1273.00,0.0607
1272.00,0.0633
1271.00,0.0658
1270.00,0.0682
1269.00,0.0706
1268.00,0.0729
1267.00,0.0752
1266.00,0.0773
1265.00,0.0794
1264.00,0.0814
1263.00,0.0834
1262.00,0.0853
1261.00,0.0871
1260.00,0.0889
1259.00,0.0905
1258.00,0.0920
1257.00,0.0934
1256.00,0.0948
1255.00,0.0961
1254.00,0.0972
1253.00,0.0984
1252.00,0.0995
1251.00,0.1004
1250.00,0.1013
1249.00,0.1022
1248.00,0.1030
1247.00,0.1039
1246.00,0.1047
1245.00,0.1056
1244.00,0.1065
1243.00,0.1073
1242.00,0.1082
1241.00,0.1090
1240.00,0.1100
1239.00,0.1110
1238.00,0.1121
1237.00,0.1131
1236.00,0.1142
1235.00,0.1152
1234.00,0.1163
1233.00,0.1173
1232.00,0.1184
1231.00,0.1194
1230.00,0.1204
1229.00,0.1213
1228.00,0.1223
1227.00,0.1232
1226.00,0.1240
1225.00,0.1249
1224.00,0.1257
1223.00,0.1263
1222.00,0.1268
1221.00,0.1271
1220.00,0.1273
1219.00,0.1273
1218.00,0.1271
1217.00,0.1268
1216.00,0.1262
1215.00,0.1254
1214.00,0.1243
1213.00,0.1230
1212.00,0.1214
1211.00,0.1196
1210.00,0.1176
1209.00,0.1154
1208.00,0.1132
1207.00,0.1107
1206.00,0.1081
1205.00,0.1054
1204.00,0.1026
1203.00,0.0997
1202.00,0.0968
1201.00,0.0939
1200.00,0.0911
1199.00,0.0885
1198.00,0.0861
1197.00,0.0838
1196.00,0.0817
1195.00,0.0799
1194.00,0.0782
1193.00,0.0768
1192.00,0.0755
1191.00,0.0743
1190.00,0.0731
1189.00,0.0720
1188.00,0.0711
1187.00,0.0702
1186.00,0.0693
1185.00,0.0686
1184.00,0.0679
1183.00,0.0672
1182.00,0.0667
1181.00,0.0663
1180.00,0.0662
1179.00,0.0662
1178.00,0.0663
1177.00,0.0667
1176.00,0.0671
1175.00,0.0677
1174.00,0.0685
1173.00,0.0695
1172.00,0.0707
1171.00,0.0721
1170.00,0.0736
1169.00,0.0754
1168.00,0.0773
1167.00,0.0794
1166.00,0.0814
1165.00,0.0835
1164.00,0.0856
1163.00,0.0876
1162.00,0.0895
1161.00,0.0913
1160.00,0.0929
1159.00,0.0944
1158.00,0.0956
1157.00,0.0966
1156.00,0.0974
1155.00,0.0979
1154.00,0.0983
1153.00,0.0985
1152.00,0.0985
1151.00,0.0983
1150.00,0.0979
1149.00,0.0973
1148.00,0.0966
1147.00,0.0955
1146.00,0.0943
1145.00,0.0930
1144.00,0.0916
1143.00,0.0901
1142.00,0.0887
1141.00,0.0873
1140.00,0.0861
1139.00,0.0850
1138.00,0.0842
1137.00,0.0836
1136.00,0.0833
1135.00,0.0833
1134.00,0.0836
1133.00,0.0840
1132.00,0.0846
1131.00,0.0853
1130.00,0.0860
1129.00,0.0868
1128.00,0.0874
1127.00,0.0878
1126.00,0.0881
1125.00,0.0881
1124.00,0.0879
1123.00,0.0876
1122.00,0.0871
1121.00,0.0864
1120.00,0.0857
1119.00,0.0848
1118.00,0.0840
1117.00,0.0831
1116.00,0.0822
1115.00,0.0813
1114.00,0.0805
1113.00,0.0798
1112.00,0.0792
1111.00,0.0787
1110.00,0.0783
1109.00,0.0782
1108.00,0.0783
1107.00,0.0786
1106.00,0.0791
1105.00,0.0798
1104.00,0.0807
1103.00,0.0817
1102.00,0.0829
1101.00,0.0843
1100.00,0.0859
1099.00,0.0876
1098.00,0.0893
1097.00,0.0911
1096.00,0.0929
1095.00,0.0948
1094.00,0.0967
1093.00,0.0988
1092.00,0.1010
1091.00,0.1034
1090.00,0.1059
1089.00,0.1084
1088.00,0.1111
1087.00,0.1139
1086.00,0.1168
1085.00,0.1199
1084.00,0.1232
1083.00,0.1265
1082.00,0.1299
1081.00,0.1333
1080.00,0.1369
1079.00,0.1404
1078.00,0.1438
1077.00,0.1470
1076.00,0.1501
1075.00,0.1528
1074.00,0.1551
1073.00,0.1571
1072.00,0.1586
1071.00,0.1598
1070.00,0.1605
1069.00,0.1609
1068.00,0.1609
1067.00,0.1605
1066.00,0.1598
1065.00,0.1590
1064.00,0.1581
1063.00,0.1572
1062.00,0.1564
1061.00,0.1556
1060.00,0.1550
1059.00,0.1546
1058.00,0.1543
1057.00,0.1544
1056.00,0.1547
1055.00,0.1552
1054.00,0.1560
1053.00,0.1570
1052.00,0.1582
1051.00,0.1596
1050.00,0.1613
1049.00,0.1632
1048.00,0.1654
1047.00,0.1678
1046.00,0.1701
1045.00,0.1724
1044.00,0.1746
1043.00,0.1765
1042.00,0.1783
1041.00,0.1798
1040.00,0.1811
1039.00,0.1822
1038.00,0.1831
1037.00,0.1840
1036.00,0.1849
1035.00,0.1859
1034.00,0.1870
1033.00,0.1883
1032.00,0.1899
1031.00,0.1913
1030.00,0.1928
1029.00,0.1941
1028.00,0.1953
1027.00,0.1961
1026.00,0.1965
1025.00,0.1966
1024.00,0.1963
1023.00,0.1954
1022.00,0.1942
1021.00,0.1927
1020.00,0.1911
1019.00,0.1891
1018.00,0.1870
1017.00,0.1847
1016.00,0.1821
1015.00,0.1794
1014.00,0.1764
1013.00,0.1735
1012.00,0.1707
1011.00,0.1679
1010.00,0.1653
1009.00,0.1628
1008.00,0.1605
1007.00,0.1582
1006.00,0.1558
1005.00,0.1534
1004.00,0.1508
1003.00,0.1480
1002.00,0.1450
1001.00,0.1418
1000.00,0.1383
999.00,0.1345
998.00,0.1305
997.00,0.1264
996.00,0.1224
995.00,0.1184
994.00,0.1146
993.00,0.1108
992.00,0.1071
991.00,0.1034
990.00,0.0998
989.00,0.0963
988.00,0.0929
987.00,0.0895
986.00,0.0861
985.00,0.0829
984.00,0.0799
983.00,0.0772
982.00,0.0746
981.00,0.0724
980.00,0.0704
979.00,0.0685
978.00,0.0668
977.00,0.0652
976.00,0.0637
975.00,0.0623
974.00,0.0608
973.00,0.0592
972.00,0.0576
971.00,0.0559
970.00,0.0540
969.00,0.0519
968.00,0.0495
967.00,0.0469
966.00,0.0440
965.00,0.0411
964.00,0.0381
963.00,0.0351
962.00,0.0322
961.00,0.0295
960.00,0.0270
959.00,0.0248
958.00,0.0228
957.00,0.0210
956.00,0.0195
955.00,0.0183
954.00,0.0172
953.00,0.0164
952.00,0.0157
951.00,0.0153
950.00,0.0149
949.00,0.0148
948.00,0.0149
947.00,0.0151
946.00,0.0155
945.00,0.0162
944.00,0.0172
943.00,0.0184
942.00,0.0200
941.00,0.0218
940.00,0.0240
939.00,0.0263
938.00,0.0287
937.00,0.0311
936.00,0.0333
935.00,0.0354
934.00,0.0370
933.00,0.0383
932.00,0.0390
931.00,0.0392
930.00,0.0389
929.00,0.0384
928.00,0.0375
927.00,0.0363
926.00,0.0350
925.00,0.0337
924.00,0.0323
923.00,0.0309
922.00,0.0295
921.00,0.0283
920.00,0.0271
919.00,0.0260
918.00,0.0249
917.00,0.0240
916.00,0.0231
915.00,0.0223
914.00,0.0216
913.00,0.0210
912.00,0.0204
911.00,0.0200
910.00,0.0197
909.00,0.0194
908.00,0.0191
907.00,0.0189
906.00,0.0187
905.00,0.0185
904.00,0.0182
903.00,0.0179
902.00,0.0175
901.00,0.0172
900.00,0.0168
899.00,0.0164
898.00,0.0161
897.00,0.0159
896.00,0.0159
895.00,0.0159
894.00,0.0159
893.00,0.0159
892.00,0.0159
891.00,0.0160
890.00,0.0161
889.00,0.0161
888.00,0.0161
887.00,0.0158
886.00,0.0153
885.00,0.0146
884.00,0.0136
883.00,0.0125
882.00,0.0114
881.00,0.0103
880.00,0.0094
879.00,0.0086
878.00,0.0082
877.00,0.0080
876.00,0.0080
875.00,0.0083
874.00,0.0086
873.00,0.0089
872.00,0.0091
871.00,0.0090
870.00,0.0088
869.00,0.0086
868.00,0.0084
867.00,0.0083
866.00,0.0082
865.00,0.0082
864.00,0.0084
863.00,0.0087
862.00,0.0092
861.00,0.0099
860.00,0.0107
859.00,0.0117
858.00,0.0129
857.00,0.0143
856.00,0.0158
855.00,0.0174
854.00,0.0191
853.00,0.0208
852.00,0.0225
851.00,0.0242
850.00,0.0258
849.00,0.0273
848.00,0.0285
847.00,0.0296
846.00,0.0303
845.00,0.0308
844.00,0.0311
843.00,0.0311
842.00,0.0309
841.00,0.0308
840.00,0.0306
839.00,0.0306
838.00,0.0306
837.00,0.0306
836.00,0.0306
835.00,0.0305
834.00,0.0303
833.00,0.0300
832.00,0.0295
831.00,0.0288
830.00,0.0279
829.00,0.0270
828.00,0.0260
827.00,0.0249
826.00,0.0239
825.00,0.0229
824.00,0.0221
823.00,0.0212
822.00,0.0204
821.00,0.0197
820.00,0.0191
819.00,0.0186
818.00,0.0181
817.00,0.0176
816.00,0.0172
815.00,0.0169
814.00,0.0167
813.00,0.0167
812.00,0.0166
811.00,0.0166
810.00,0.0166
809.00,0.0165
808.00,0.0164
807.00,0.0162
806.00,0.0158
805.00,0.0154
804.00,0.0149
803.00,0.0143
802.00,0.0136
801.00,0.0130
800.00,0.0125
799.00,0.0119
798.00,0.0114
797.00,0.0109
796.00,0.0104
795.00,0.0098
794.00,0.0093
793.00,0.0089
792.00,0.0087
791.00,0.0087
790.00,0.0086
789.00,0.0086
788.00,0.0086
787.00,0.0086
786.00,0.0088
785.00,0.0090
784.00,0.0093
783.00,0.0096
782.00,0.0100
781.00,0.0105
780.00,0.0111
779.00,0.0117
778.00,0.0122
777.00,0.0126
776.00,0.0130
775.00,0.0133
774.00,0.0135
773.00,0.0137
772.00,0.0137
771.00,0.0136
770.00,0.0134
769.00,0.0130
768.00,0.0124
767.00,0.0119
766.00,0.0112
765.00,0.0106
764.00,0.0099
763.00,0.0095
762.00,0.0091
761.00,0.0089
760.00,0.0087
759.00,0.0085
758.00,0.0083
757.00,0.0082
756.00,0.0083
755.00,0.0085
754.00,0.0088
753.00,0.0093
752.00,0.0098
751.00,0.0105
750.00,0.0112
749.00,0.0120
748.00,0.0129
747.00,0.0138
746.00,0.0147
745.00,0.0155
744.00,0.0162
743.00,0.0167
742.00,0.0172
741.00,0.0177
740.00,0.0183
739.00,0.0188
738.00,0.0193
737.00,0.0197
736.00,0.0201
735.00,0.0204
734.00,0.0207
733.00,0.0211
732.00,0.0214
731.00,0.0219
730.00,0.0225
729.00,0.0231
728.00,0.0236
727.00,0.0242
726.00,0.0245
725.00,0.0248
724.00,0.0248
723.00,0.0247
722.00,0.0244
721.00,0.0241
720.00,0.0237
719.00,0.0233
718.00,0.0229
717.00,0.0224
716.00,0.0220
715.00,0.0217
714.00,0.0215
713.00,0.0214
712.00,0.0214
711.00,0.0215
710.00,0.0217
709.00,0.0220
708.00,0.0224
707.00,0.0229
706.00,0.0234
705.00,0.0239
704.00,0.0243
703.00,0.0246
702.00,0.0248
701.00,0.0250
700.00,0.0251
699.00,0.0250
698.00,0.0247
697.00,0.0243
696.00,0.0237
695.00,0.0230
694.00,0.0223
693.00,0.0215
692.00,0.0206
691.00,0.0196
690.00,0.0187
689.00,0.0181
688.00,0.0176
687.00,0.0172
686.00,0.0168
685.00,0.0164
684.00,0.0159
683.00,0.0153
682.00,0.0148
681.00,0.0145
680.00,0.0143
679.00,0.0142
678.00,0.0143
677.00,0.0145
676.00,0.0150
675.00,0.0156
674.00,0.0162
673.00,0.0169
672.00,0.0172
671.00,0.0169
670.00,0.0161
669.00,0.0153
668.00,0.0155
667.00,0.0164
666.00,0.0170
665.00,0.0170
664.00,0.0165
663.00,0.0160
662.00,0.0155
661.00,0.0151
660.00,0.0146
659.00,0.0141
658.00,0.0135
657.00,0.0131
656.00,0.0126
655.00,0.0121
654.00,0.0116
653.00,0.0112
652.00,0.0110
651.00,0.0109
650.00,0.0107
649.00,0.0103
648.00,0.0099
647.00,0.0095
646.00,0.0092
645.00,0.0090
644.00,0.0089
643.00,0.0089
642.00,0.0087
641.00,0.0086
640.00,0.0084
639.00,0.0083
638.00,0.0084
637.00,0.0087
636.00,0.0092
635.00,0.0100
634.00,0.0110
633.00,0.0121
632.00,0.0133
631.00,0.0146
630.00,0.0160
629.00,0.0177
628.00,0.0195
627.00,0.0213
626.00,0.0231
625.00,0.0249
624.00,0.0267
623.00,0.0286
622.00,0.0304
621.00,0.0321
620.00,0.0336
619.00,0.0348
618.00,0.0358
617.00,0.0366
616.00,0.0375
615.00,0.0384
614.00,0.0391
613.00,0.0396
612.00,0.0398
611.00,0.0399
610.00,0.0399
609.00,0.0399
608.00,0.0402
607.00,0.0406
606.00,0.0409
605.00,0.0410
604.00,0.0409
603.00,0.0408
602.00,0.0407
601.00,0.0409
600.00,0.0413
599.00,0.0417
598.00,0.0419
597.00,0.0418
596.00,0.0416
595.00,0.0413
594.00,0.0410
593.00,0.0412
592.00,0.0417
591.00,0.0425
590.00,0.0435
589.00,0.0448
588.00,0.0464
587.00,0.0479
586.00,0.0493
585.00,0.0506
584.00,0.0519
583.00,0.0530
582.00,0.0538
581.00,0.0546
580.00,0.0553
579.00,0.0557
578.00,0.0558
577.00,0.0557
576.00,0.0555
575.00,0.0548
574.00,0.0538
573.00,0.0527
572.00,0.0520
571.00,0.0515
570.00,0.0507
569.00,0.0495
568.00,0.0482
567.00,0.0468
566.00,0.0455
565.00,0.0444
564.00,0.0436
563.00,0.0427
562.00,0.0416
561.00,0.0404
560.00,0.0394
559.00,0.0386
558.00,0.0381
557.00,0.0377
556.00,0.0373
555.00,0.0367
554.00,0.0356
553.00,0.0346
552.00,0.0338
551.00,0.0330
550.00,0.0323
549.00,0.0317
548.00,0.0315
547.00,0.0315
546.00,0.0314
545.00,0.0312
544.00,0.0312
543.00,0.0313
542.00,0.0314
541.00,0.0316
540.00,0.0318
539.00,0.0317
538.00,0.0311
537.00,0.0302
536.00,0.0296
535.00,0.0293
534.00,0.0288
533.00,0.0282
532.00,0.0276
531.00,0.0269
530.00,0.0261
529.00,0.0254
528.00,0.0250
527.00,0.0250
526.00,0.0255
525.00,0.0261
524.00,0.0266
523.00,0.0264
522.00,0.0257
521.00,0.0249
520.00,0.0244
519.00,0.0242
518.00,0.0240
517.00,0.0238
516.00,0.0236
515.00,0.0231
514.00,0.0223
513.00,0.0212
512.00,0.0203
511.00,0.0195
510.00,0.0185
509.00,0.0178
508.00,0.0174
507.00,0.0172
506.00,0.0167
505.00,0.0160
504.00,0.0155
503.00,0.0152
502.00,0.0146
501.00,0.0138
500.00,0.0129
499.00,0.0123
498.00,0.0120
497.00,0.0119
496.00,0.0118
495.00,0.0115
494.00,0.0109
493.00,0.0105
492.00,0.0104
491.00,0.0104
490.00,0.0100
489.00,0.0093
488.00,0.0090
487.00,0.0094
486.00,0.0103
485.00,0.0115
484.00,0.0125
483.00,0.0129
482.00,0.0127
481.00,0.0123
480.00,0.0121
479.00,0.0117
478.00,0.0107
477.00,0.0096
476.00,0.0092
475.00,0.0097
474.00,0.0108
473.00,0.0118
472.00,0.0127
471.00,0.0131
470.00,0.0127
469.00,0.0122
468.00,0.0117
467.00,0.0112
466.00,0.0105
465.00,0.0099
464.00,0.0101
463.00,0.0107
462.00,0.0109
461.00,0.0102
460.00,0.0095
459.00,0.0091
458.00,0.0093
457.00,0.0096
456.00,0.0094
455.00,0.0083
454.00,0.0069
453.00,0.0062
452.00,0.0061
451.00,0.0056
450.00,0.0045
