Created as New Dataset,Sample 003 By Administrator Date Monday, June 09 2025
cm-1,A
4000.00,0.0057
3999.00,0.0057
3998.00,0.0057
3997.00,0.0057
3996.00,0.0057
3995.00,0.0057
3994.00,0.0057
3993.00,0.0057
3992.00,0.0057
3991.00,0.0057
3990.00,0.0057
3989.00,0.0057
3988.00,0.0058
3987.00,0.0058
3986.00,0.0058
3985.00,0.0058
3984.00,0.0057
3983.00,0.0057
3982.00,0.0057
3981.00,0.0057
3980.00,0.0057
3979.00,0.0057
3978.00,0.0057
3977.00,0.0057
3976.00,0.0057
3975.00,0.0057
3974.00,0.0058
3973.00,0.0058
3972.00,0.0058
3971.00,0.0059
3970.00,0.0059
3969.00,0.0059
3968.00,0.0058
3967.00,0.0058
3966.00,0.0057
3965.00,0.0057
3964.00,0.0057
3963.00,0.0057
3962.00,0.0058
3961.00,0.0058
3960.00,0.0058
3959.00,0.0058
3958.00,0.0058
3957.00,0.0059
3956.00,0.0059
3955.00,0.0059
3954.00,0.0059
3953.00,0.0058
3952.00,0.0059
3951.00,0.0059
3950.00,0.0059
3949.00,0.0059
3948.00,0.0059
3947.00,0.0058
3946.00,0.0058
3945.00,0.0059
3944.00,0.0059
3943.00,0.0059
3942.00,0.0058
3941.00,0.0058
3940.00,0.0058
3939.00,0.0058
3938.00,0.0058
3937.00,0.0058
3936.00,0.0059
3935.00,0.0059
3934.00,0.0060
3933.00,0.0060
3932.00,0.0060
3931.00,0.0059
3930.00,0.0059
3929.00,0.0059
3928.00,0.0059
3927.00,0.0059
3926.00,0.0059
3925.00,0.0059
3924.00,0.0059
3923.00,0.0059
3922.00,0.0059
3921.00,0.0059
3920.00,0.0059
3919.00,0.0059
3918.00,0.0059
3917.00,0.0059
3916.00,0.0058
3915.00,0.0058
3914.00,0.0057
3913.00,0.0057
3912.00,0.0057
3911.00,0.0057
3910.00,0.0057
3909.00,0.0058
3908.00,0.0058
3907.00,0.0059
3906.00,0.0060
3905.00,0.0061
3904.00,0.0062
3903.00,0.0062
3902.00,0.0062
3901.00,0.0061
3900.00,0.0060
3899.00,0.0059
3898.00,0.0059
3897.00,0.0059
3896.00,0.0059
3895.00,0.0059
3894.00,0.0059
3893.00,0.0059
3892.00,0.0059
3891.00,0.0059
3890.00,0.0059
3889.00,0.0059
3888.00,0.0059
3887.00,0.0060
3886.00,0.0060
3885.00,0.0060
3884.00,0.0060
3883.00,0.0060
3882.00,0.0060
3881.00,0.0060
3880.00,0.0059
3879.00,0.0059
3878.00,0.0059
3877.00,0.0059
3876.00,0.0059
3875.00,0.0059
3874.00,0.0059
3873.00,0.0059
3872.00,0.0059
3871.00,0.0060
3870.00,0.0060
3869.00,0.0060
3868.00,0.0060
3867.00,0.0060
3866.00,0.0060
3865.00,0.0060
3864.00,0.0059
3863.00,0.0059
3862.00,0.0059
3861.00,0.0059
3860.00,0.0058
3859.00,0.0058
3858.00,0.0058
3857.00,0.0057
3856.00,0.0057
3855.00,0.0058
3854.00,0.0059
3853.00,0.0060
3852.00,0.0060
3851.00,0.0060
3850.00,0.0060
3849.00,0.0060
3848.00,0.0059
3847.00,0.0059
3846.00,0.0059
3845.00,0.0059
3844.00,0.0059
3843.00,0.0059
3842.00,0.0060
3841.00,0.0061
3840.00,0.0061
3839.00,0.0061
3838.00,0.0061
3837.00,0.0061
3836.00,0.0061
3835.00,0.0060
3834.00,0.0060
3833.00,0.0060
3832.00,0.0059
3831.00,0.0059
3830.00,0.0058
3829.00,0.0058
3828.00,0.0058
3827.00,0.0058
3826.00,0.0058
3825.00,0.0059
3824.00,0.0059
3823.00,0.0060
3822.00,0.0060
3821.00,0.0060
3820.00,0.0060
3819.00,0.0060
3818.00,0.0060
3817.00,0.0060
3816.00,0.0059
3815.00,0.0059
3814.00,0.0058
3813.00,0.0058
3812.00,0.0058
3811.00,0.0058
3810.00,0.0058
3809.00,0.0058
3808.00,0.0058
3807.00,0.0058
3806.00,0.0059
3805.00,0.0059
3804.00,0.0060
3803.00,0.0060
3802.00,0.0060
3801.00,0.0060
3800.00,0.0060
3799.00,0.0061
3798.00,0.0061
3797.00,0.0060
3796.00,0.0060
3795.00,0.0060
3794.00,0.0059
3793.00,0.0059
3792.00,0.0059
3791.00,0.0059
3790.00,0.0059
3789.00,0.0059
3788.00,0.0059
3787.00,0.0059
3786.00,0.0059
3785.00,0.0059
3784.00,0.0059
3783.00,0.0059
3782.00,0.0059
3781.00,0.0060
3780.00,0.0060
3779.00,0.0060
3778.00,0.0060
3777.00,0.0060
3776.00,0.0059
3775.00,0.0059
3774.00,0.0059
3773.00,0.0060
3772.00,0.0060
3771.00,0.0060
3770.00,0.0061
3769.00,0.0061
3768.00,0.0061
3767.00,0.0061
3766.00,0.0061
3765.00,0.0062
3764.00,0.0062
3763.00,0.0062
3762.00,0.0063
3761.00,0.0063
3760.00,0.0063
3759.00,0.0063
3758.00,0.0063
3757.00,0.0063
3756.00,0.0064
3755.00,0.0064
3754.00,0.0064
3753.00,0.0064
3752.00,0.0064
3751.00,0.0064
3750.00,0.0065
3749.00,0.0065
3748.00,0.0066
3747.00,0.0066
3746.00,0.0067
3745.00,0.0067
3744.00,0.0067
3743.00,0.0067
3742.00,0.0068
3741.00,0.0068
3740.00,0.0068
3739.00,0.0068
3738.00,0.0068
3737.00,0.0068
3736.00,0.0068
3735.00,0.0068
3734.00,0.0068
3733.00,0.0068
3732.00,0.0067
3731.00,0.0067
3730.00,0.0067
3729.00,0.0067
3728.00,0.0067
3727.00,0.0067
3726.00,0.0067
3725.00,0.0067
3724.00,0.0068
3723.00,0.0068
3722.00,0.0069
3721.00,0.0069
3720.00,0.0069
3719.00,0.0069
3718.00,0.0069
3717.00,0.0070
3716.00,0.0070
3715.00,0.0070
3714.00,0.0071
3713.00,0.0072
3712.00,0.0072
3711.00,0.0073
3710.00,0.0074
3709.00,0.0074
3708.00,0.0074
3707.00,0.0074
3706.00,0.0074
3705.00,0.0075
3704.00,0.0076
3703.00,0.0076
3702.00,0.0077
3701.00,0.0077
3700.00,0.0077
3699.00,0.0078
3698.00,0.0078
3697.00,0.0079
3696.00,0.0080
3695.00,0.0081
3694.00,0.0082
3693.00,0.0084
3692.00,0.0085
3691.00,0.0086
3690.00,0.0088
3689.00,0.0089
3688.00,0.0091
3687.00,0.0092
3686.00,0.0093
3685.00,0.0094
3684.00,0.0095
3683.00,0.0097
3682.00,0.0098
3681.00,0.0100
3680.00,0.0102
3679.00,0.0104
3678.00,0.0106
3677.00,0.0109
3676.00,0.0111
3675.00,0.0113
3674.00,0.0115
3673.00,0.0117
3672.00,0.0120
3671.00,0.0123
3670.00,0.0126
3669.00,0.0128
3668.00,0.0130
3667.00,0.0133
3666.00,0.0135
3665.00,0.0137
3664.00,0.0139
3663.00,0.0141
3662.00,0.0143
3661.00,0.0147
3660.00,0.0150
3659.00,0.0154
3658.00,0.0158
3657.00,0.0163
3656.00,0.0167
3655.00,0.0172
3654.00,0.0176
3653.00,0.0180
3652.00,0.0184
3651.00,0.0188
3650.00,0.0193
3649.00,0.0199
3648.00,0.0206
3647.00,0.0211
3646.00,0.0216
3645.00,0.0220
3644.00,0.0223
3643.00,0.0227
3642.00,0.0231
3641.00,0.0235
3640.00,0.0239
3639.00,0.0244
3638.00,0.0250
3637.00,0.0255
3636.00,0.0261
3635.00,0.0266
3634.00,0.0272
3633.00,0.0277
3632.00,0.0283
3631.00,0.0288
3630.00,0.0294
3629.00,0.0301
3628.00,0.0308
3627.00,0.0315
3626.00,0.0321
3625.00,0.0327
3624.00,0.0332
3623.00,0.0337
3622.00,0.0343
3621.00,0.0349
3620.00,0.0355
3619.00,0.0362
3618.00,0.0369
3617.00,0.0376
3616.00,0.0383
3615.00,0.0389
3614.00,0.0395
3613.00,0.0401
3612.00,0.0407
3611.00,0.0413
3610.00,0.0419
3609.00,0.0425
3608.00,0.0430
3607.00,0.0436
3606.00,0.0442
3605.00,0.0448
3604.00,0.0455
3603.00,0.0461
3602.00,0.0466
3601.00,0.0472
3600.00,0.0478
3599.00,0.0484
3598.00,0.0491
3597.00,0.0498
3596.00,0.0504
3595.00,0.0510
3594.00,0.0517
3593.00,0.0523
3592.00,0.0529
3591.00,0.0536
3590.00,0.0542
3589.00,0.0548
3588.00,0.0554
3587.00,0.0560
3586.00,0.0566
3585.00,0.0572
3584.00,0.0579
3583.00,0.0585
3582.00,0.0590
3581.00,0.0596
3580.00,0.0601
3579.00,0.0607
3578.00,0.0613
3577.00,0.0619
3576.00,0.0625
3575.00,0.0631
3574.00,0.0637
3573.00,0.0643
3572.00,0.0650
3571.00,0.0657
3570.00,0.0663
3569.00,0.0669
3568.00,0.0675
3567.00,0.0681
3566.00,0.0687
3565.00,0.0695
3564.00,0.0702
3563.00,0.0708
3562.00,0.0714
3561.00,0.0719
3560.00,0.0724
3559.00,0.0729
3558.00,0.0735
3557.00,0.0741
3556.00,0.0747
3555.00,0.0752
3554.00,0.0758
3553.00,0.0764
3552.00,0.0770
3551.00,0.0777
3550.00,0.0784
3549.00,0.0792
3548.00,0.0798
3547.00,0.0804
3546.00,0.0810
3545.00,0.0816
3544.00,0.0821
3543.00,0.0827
3542.00,0.0832
3541.00,0.0837
3540.00,0.0843
3539.00,0.0849
3538.00,0.0854
3537.00,0.0860
3536.00,0.0865
3535.00,0.0871
3534.00,0.0877
3533.00,0.0883
3532.00,0.0888
3531.00,0.0894
3530.00,0.0899
3529.00,0.0905
3528.00,0.0911
3527.00,0.0917
3526.00,0.0923
3525.00,0.0929
3524.00,0.0935
3523.00,0.0940
3522.00,0.0945
3521.00,0.0950
3520.00,0.0955
3519.00,0.0961
3518.00,0.0967
3517.00,0.0973
3516.00,0.0978
3515.00,0.0984
3514.00,0.0989
3513.00,0.0994
3512.00,0.0999
3511.00,0.1004
3510.00,0.1009
3509.00,0.1015
3508.00,0.1021
3507.00,0.1027
3506.00,0.1033
3505.00,0.1039
3504.00,0.1044
3503.00,0.1049
3502.00,0.1055
3501.00,0.1061
3500.00,0.1067
3499.00,0.1073
3498.00,0.1079
3497.00,0.1084
3496.00,0.1088
3495.00,0.1093
3494.00,0.1097
3493.00,0.1102
3492.00,0.1108
3491.00,0.1113
3490.00,0.1119
3489.00,0.1125
3488.00,0.1131
3487.00,0.1136
3486.00,0.1141
3485.00,0.1146
3484.00,0.1151
3483.00,0.1156
3482.00,0.1162
3481.00,0.1168
3480.00,0.1174
3479.00,0.1179
3478.00,0.1184
3477.00,0.1189
3476.00,0.1194
3475.00,0.1199
3474.00,0.1204
3473.00,0.1210
3472.00,0.1216
3471.00,0.1222
3470.00,0.1227
3469.00,0.1233
3468.00,0.1238
3467.00,0.1242
3466.00,0.1247
3465.00,0.1251
3464.00,0.1256
3463.00,0.1261
3462.00,0.1266
3461.00,0.1271
3460.00,0.1276
3459.00,0.1280
3458.00,0.1285
3457.00,0.1289
3456.00,0.1294
3455.00,0.1299
3454.00,0.1304
3453.00,0.1309
3452.00,0.1314
3451.00,0.1319
3450.00,0.1324
3449.00,0.1329
3448.00,0.1333
3447.00,0.1338
3446.00,0.1343
3445.00,0.1348
3444.00,0.1353
3443.00,0.1357
3442.00,0.1361
3441.00,0.1366
3440.00,0.1371
3439.00,0.1377
3438.00,0.1382
3437.00,0.1387
3436.00,0.1392
3435.00,0.1396
3434.00,0.1400
3433.00,0.1404
3432.00,0.1408
3431.00,0.1412
3430.00,0.1416
3429.00,0.1420
3428.00,0.1424
3427.00,0.1428
3426.00,0.1433
3425.00,0.1437
3424.00,0.1441
3423.00,0.1446
3422.00,0.1450
3421.00,0.1454
3420.00,0.1458
3419.00,0.1461
3418.00,0.1465
3417.00,0.1469
3416.00,0.1473
3415.00,0.1477
3414.00,0.1481
3413.00,0.1485
3412.00,0.1489
3411.00,0.1492
3410.00,0.1496
3409.00,0.1499
3408.00,0.1502
3407.00,0.1505
3406.00,0.1508
3405.00,0.1512
3404.00,0.1516
3403.00,0.1520
3402.00,0.1524
3401.00,0.1527
3400.00,0.1530
3399.00,0.1531
3398.00,0.1533
3397.00,0.1535
3396.00,0.1538
3395.00,0.1542
3394.00,0.1545
3393.00,0.1548
3392.00,0.1550
3391.00,0.1552
3390.00,0.1554
3389.00,0.1555
3388.00,0.1557
3387.00,0.1558
3386.00,0.1559
3385.00,0.1560
3384.00,0.1562
3383.00,0.1564
3382.00,0.1566
3381.00,0.1568
3380.00,0.1570
3379.00,0.1571
3378.00,0.1573
3377.00,0.1574
3376.00,0.1576
3375.00,0.1577
3374.00,0.1579
3373.00,0.1581
3372.00,0.1582
3371.00,0.1584
3370.00,0.1585
3369.00,0.1585
3368.00,0.1586
3367.00,0.1587
3366.00,0.1587
3365.00,0.1588
3364.00,0.1589
3363.00,0.1590
3362.00,0.1590
3361.00,0.1590
3360.00,0.1590
3359.00,0.1590
3358.00,0.1590
3357.00,0.1591
3356.00,0.1591
3355.00,0.1592
3354.00,0.1592
3353.00,0.1592
3352.00,0.1593
3351.00,0.1593
3350.00,0.1593
3349.00,0.1593
3348.00,0.1593
3347.00,0.1592
3346.00,0.1592
3345.00,0.1591
3344.00,0.1591
3343.00,0.1591
3342.00,0.1590
3341.00,0.1590
3340.00,0.1590
3339.00,0.1590
3338.00,0.1589
3337.00,0.1589
3336.00,0.1588
3335.00,0.1587
3334.00,0.1586
3333.00,0.1586
3332.00,0.1586
3331.00,0.1585
3330.00,0.1584
3329.00,0.1583
3328.00,0.1582
3327.00,0.1581
3326.00,0.1581
3325.00,0.1580
3324.00,0.1579
3323.00,0.1578
3322.00,0.1578
3321.00,0.1577
3320.00,0.1577
3319.00,0.1576
3318.00,0.1575
3317.00,0.1574
3316.00,0.1574
3315.00,0.1573
3314.00,0.1572
3313.00,0.1572
3312.00,0.1571
3311.00,0.1570
3310.00,0.1569
3309.00,0.1569
3308.00,0.1569
3307.00,0.1568
3306.00,0.1567
3305.00,0.1566
3304.00,0.1564
3303.00,0.1563
3302.00,0.1562
3301.00,0.1561
3300.00,0.1560
3299.00,0.1559
3298.00,0.1558
3297.00,0.1557
3296.00,0.1556
3295.00,0.1555
3294.00,0.1553
3293.00,0.1552
3292.00,0.1551
3291.00,0.1550
3290.00,0.1549
3289.00,0.1548
3288.00,0.1547
3287.00,0.1545
3286.00,0.1544
3285.00,0.1542
3284.00,0.1540
3283.00,0.1539
3282.00,0.1538
3281.00,0.1536
3280.00,0.1534
3279.00,0.1532
3278.00,0.1529
3277.00,0.1526
3276.00,0.1523
3275.00,0.1521
3274.00,0.1519
3273.00,0.1517
3272.00,0.1514
3271.00,0.1512
3270.00,0.1509
3269.00,0.1507
3268.00,0.1504
3267.00,0.1501
3266.00,0.1499
3265.00,0.1496
3264.00,0.1492
3263.00,0.1489
3262.00,0.1486
3261.00,0.1483
3260.00,0.1479
3259.00,0.1476
3258.00,0.1472
3257.00,0.1468
3256.00,0.1465
3255.00,0.1461
3254.00,0.1458
3253.00,0.1454
3252.00,0.1451
3251.00,0.1448
3250.00,0.1444
3249.00,0.1440
3248.00,0.1435
3247.00,0.1431
3246.00,0.1426
3245.00,0.1422
3244.00,0.1418
3243.00,0.1415
3242.00,0.1412
3241.00,0.1408
3240.00,0.1404
3239.00,0.1400
3238.00,0.1396
3237.00,0.1392
3236.00,0.1388
3235.00,0.1384
3234.00,0.1380
3233.00,0.1377
3232.00,0.1373
3231.00,0.1368
3230.00,0.1364
3229.00,0.1359
3228.00,0.1355
3227.00,0.1351
3226.00,0.1347
3225.00,0.1342
3224.00,0.1337
3223.00,0.1333
3222.00,0.1328
3221.00,0.1324
3220.00,0.1319
3219.00,0.1314
3218.00,0.1309
3217.00,0.1305
3216.00,0.1301
3215.00,0.1297
3214.00,0.1292
3213.00,0.1288
3212.00,0.1283
3211.00,0.1278
3210.00,0.1272
3209.00,0.1267
3208.00,0.1262
3207.00,0.1258
3206.00,0.1253
3205.00,0.1248
3204.00,0.1243
3203.00,0.1237
3202.00,0.1232
3201.00,0.1226
3200.00,0.1221
3199.00,0.1217
3198.00,0.1212
3197.00,0.1207
3196.00,0.1201
3195.00,0.1196
3194.00,0.1190
3193.00,0.1184
3192.00,0.1178
3191.00,0.1172
3190.00,0.1167
3189.00,0.1162
3188.00,0.1156
3187.00,0.1151
3186.00,0.1145
3185.00,0.1139
3184.00,0.1134
3183.00,0.1129
3182.00,0.1124
3181.00,0.1118
3180.00,0.1113
3179.00,0.1107
3178.00,0.1101
3177.00,0.1095
3176.00,0.1089
3175.00,0.1082
3174.00,0.1076
3173.00,0.1070
3172.00,0.1064
3171.00,0.1059
3170.00,0.1053
3169.00,0.1048
3168.00,0.1042
3167.00,0.1036
3166.00,0.1031
3165.00,0.1025
3164.00,0.1019
3163.00,0.1013
3162.00,0.1007
3161.00,0.1001
3160.00,0.0995
3159.00,0.0989
3158.00,0.0983
3157.00,0.0978
3156.00,0.0972
3155.00,0.0966
3154.00,0.0961
3153.00,0.0955
3152.00,0.0949
3151.00,0.0944
3150.00,0.0938
3149.00,0.0933
3148.00,0.0928
3147.00,0.0922
3146.00,0.0917
3145.00,0.0911
3144.00,0.0906
3143.00,0.0901
3142.00,0.0896
3141.00,0.0891
3140.00,0.0886
3139.00,0.0880
3138.00,0.0875
3137.00,0.0869
3136.00,0.0864
3135.00,0.0859
3134.00,0.0854
3133.00,0.0849
3132.00,0.0844
3131.00,0.0838
3130.00,0.0833
3129.00,0.0828
3128.00,0.0824
3127.00,0.0820
3126.00,0.0815
3125.00,0.0811
3124.00,0.0806
3123.00,0.0802
3122.00,0.0797
3121.00,0.0793
3120.00,0.0789
3119.00,0.0784
3118.00,0.0780
3117.00,0.0775
3116.00,0.0771
3115.00,0.0766
3114.00,0.0762
3113.00,0.0758
3112.00,0.0754
3111.00,0.0750
3110.00,0.0746
3109.00,0.0743
3108.00,0.0739
3107.00,0.0736
3106.00,0.0732
3105.00,0.0729
3104.00,0.0725
3103.00,0.0721
3102.00,0.0717
3101.00,0.0714
3100.00,0.0710
3099.00,0.0707
3098.00,0.0703
3097.00,0.0700
3096.00,0.0697
3095.00,0.0694
3094.00,0.0691
3093.00,0.0688
3092.00,0.0685
3091.00,0.0682
3090.00,0.0679
3089.00,0.0676
3088.00,0.0673
3087.00,0.0670
3086.00,0.0667
3085.00,0.0664
3084.00,0.0661
3083.00,0.0657
3082.00,0.0654
3081.00,0.0651
3080.00,0.0648
3079.00,0.0645
3078.00,0.0643
3077.00,0.0640
3076.00,0.0638
3075.00,0.0635
3074.00,0.0631
3073.00,0.0628
3072.00,0.0625
3071.00,0.0622
3070.00,0.0619
3069.00,0.0616
3068.00,0.0613
3067.00,0.0610
3066.00,0.0607
3065.00,0.0604
3064.00,0.0601
3063.00,0.0598
3062.00,0.0594
3061.00,0.0591
3060.00,0.0588
3059.00,0.0585
3058.00,0.0582
3057.00,0.0579
3056.00,0.0575
3055.00,0.0572
3054.00,0.0568
3053.00,0.0565
3052.00,0.0561
3051.00,0.0557
3050.00,0.0554
3049.00,0.0550
3048.00,0.0547
3047.00,0.0544
3046.00,0.0541
3045.00,0.0538
3044.00,0.0535
3043.00,0.0532
3042.00,0.0529
3041.00,0.0525
3040.00,0.0521
3039.00,0.0518
3038.00,0.0515
3037.00,0.0512
3036.00,0.0510
3035.00,0.0507
3034.00,0.0505
3033.00,0.0502
3032.00,0.0499
3031.00,0.0496
3030.00,0.0493
3029.00,0.0490
3028.00,0.0488
3027.00,0.0485
3026.00,0.0482
3025.00,0.0480
3024.00,0.0477
3023.00,0.0475
3022.00,0.0472
3021.00,0.0470
3020.00,0.0468
3019.00,0.0466
3018.00,0.0464
3017.00,0.0462
3016.00,0.0460
3015.00,0.0458
3014.00,0.0457
3013.00,0.0455
3012.00,0.0452
3011.00,0.0450
3010.00,0.0448
3009.00,0.0446
3008.00,0.0444
3007.00,0.0442
3006.00,0.0440
3005.00,0.0439
3004.00,0.0437
3003.00,0.0436
3002.00,0.0434
3001.00,0.0433
3000.00,0.0432
2999.00,0.0431
2998.00,0.0430
2997.00,0.0430
2996.00,0.0429
2995.00,0.0429
2994.00,0.0428
2993.00,0.0428
2992.00,0.0427
2991.00,0.0427
2990.00,0.0428
2989.00,0.0428
2988.00,0.0429
2987.00,0.0429
2986.00,0.0430
2985.00,0.0431
2984.00,0.0432
2983.00,0.0433
2982.00,0.0434
2981.00,0.0435
2980.00,0.0436
2979.00,0.0438
2978.00,0.0440
2977.00,0.0441
2976.00,0.0443
2975.00,0.0445
2974.00,0.0447
2973.00,0.0449
2972.00,0.0451
2971.00,0.0453
2970.00,0.0455
2969.00,0.0457
2968.00,0.0459
2967.00,0.0461
2966.00,0.0462
2965.00,0.0464
2964.00,0.0465
2963.00,0.0466
2962.00,0.0466
2961.00,0.0467
2960.00,0.0467
2959.00,0.0466
2958.00,0.0466
2957.00,0.0465
2956.00,0.0464
2955.00,0.0462
2954.00,0.0460
2953.00,0.0459
2952.00,0.0457
2951.00,0.0456
2950.00,0.0454
2949.00,0.0453
2948.00,0.0452
2947.00,0.0451
2946.00,0.0451
2945.00,0.0451
2944.00,0.0451
2943.00,0.0451
2942.00,0.0452
2941.00,0.0453
2940.00,0.0453
2939.00,0.0454
2938.00,0.0455
2937.00,0.0456
2936.00,0.0457
2935.00,0.0458
2934.00,0.0458
2933.00,0.0459
2932.00,0.0459
2931.00,0.0459
2930.00,0.0459
2929.00,0.0459
2928.00,0.0458
2927.00,0.0458
2926.00,0.0458
2925.00,0.0458
2924.00,0.0457
2923.00,0.0455
2922.00,0.0453
2921.00,0.0450
2920.00,0.0447
2919.00,0.0444
2918.00,0.0441
2917.00,0.0437
2916.00,0.0434
2915.00,0.0430
2914.00,0.0425
2913.00,0.0421
2912.00,0.0416
2911.00,0.0412
2910.00,0.0408
2909.00,0.0405
2908.00,0.0402
2907.00,0.0399
2906.00,0.0397
2905.00,0.0394
2904.00,0.0392
2903.00,0.0390
2902.00,0.0387
2901.00,0.0385
2900.00,0.0382
2899.00,0.0380
2898.00,0.0377
2897.00,0.0375
2896.00,0.0372
2895.00,0.0370
2894.00,0.0368
2893.00,0.0365
2892.00,0.0363
2891.00,0.0361
2890.00,0.0359
2889.00,0.0357
2888.00,0.0355
2887.00,0.0353
2886.00,0.0351
2885.00,0.0349
2884.00,0.0347
2883.00,0.0345
2882.00,0.0344
2881.00,0.0343
2880.00,0.0342
2879.00,0.0340
2878.00,0.0339
2877.00,0.0337
2876.00,0.0336
2875.00,0.0334
2874.00,0.0333
2873.00,0.0331
2872.00,0.0329
2871.00,0.0326
2870.00,0.0324
2869.00,0.0321
2868.00,0.0318
2867.00,0.0316
2866.00,0.0313
2865.00,0.0311
2864.00,0.0309
2863.00,0.0308
2862.00,0.0307
2861.00,0.0306
2860.00,0.0305
2859.00,0.0305
2858.00,0.0305
2857.00,0.0304
2856.00,0.0304
2855.00,0.0304
2854.00,0.0303
2853.00,0.0303
2852.00,0.0301
2851.00,0.0299
2850.00,0.0297
2849.00,0.0293
2848.00,0.0289
2847.00,0.0285
2846.00,0.0280
2845.00,0.0275
2844.00,0.0271
2843.00,0.0267
2842.00,0.0264
2841.00,0.0261
2840.00,0.0258
2839.00,0.0256
2838.00,0.0254
2837.00,0.0252
2836.00,0.0250
2835.00,0.0248
2834.00,0.0247
2833.00,0.0245
2832.00,0.0243
2831.00,0.0242
2830.00,0.0240
2829.00,0.0239
2828.00,0.0238
2827.00,0.0236
2826.00,0.0235
2825.00,0.0234
2824.00,0.0233
2823.00,0.0232
2822.00,0.0231
2821.00,0.0229
2820.00,0.0228
2819.00,0.0227
2818.00,0.0226
2817.00,0.0225
2816.00,0.0223
2815.00,0.0222
2814.00,0.0221
2813.00,0.0220
2812.00,0.0219
2811.00,0.0218
2810.00,0.0217
2809.00,0.0216
2808.00,0.0215
2807.00,0.0215
2806.00,0.0214
2805.00,0.0213
2804.00,0.0212
2803.00,0.0211
2802.00,0.0210
2801.00,0.0210
2800.00,0.0209
2799.00,0.0208
2798.00,0.0207
2797.00,0.0206
2796.00,0.0205
2795.00,0.0204
2794.00,0.0203
2793.00,0.0202
2792.00,0.0201
2791.00,0.0200
2790.00,0.0199
2789.00,0.0198
2788.00,0.0198
2787.00,0.0197
2786.00,0.0197
2785.00,0.0196
2784.00,0.0195
2783.00,0.0194
2782.00,0.0193
2781.00,0.0192
2780.00,0.0192
2779.00,0.0191
2778.00,0.0190
2777.00,0.0190
2776.00,0.0189
2775.00,0.0189
2774.00,0.0188
2773.00,0.0187
2772.00,0.0186
2771.00,0.0186
2770.00,0.0185
2769.00,0.0184
2768.00,0.0183
2767.00,0.0183
2766.00,0.0183
2765.00,0.0182
2764.00,0.0182
2763.00,0.0181
2762.00,0.0180
2761.00,0.0180
2760.00,0.0179
2759.00,0.0179
2758.00,0.0178
2757.00,0.0177
2756.00,0.0177
2755.00,0.0176
2754.00,0.0176
2753.00,0.0175
2752.00,0.0175
2751.00,0.0174
2750.00,0.0174
2749.00,0.0173
2748.00,0.0173
2747.00,0.0173
2746.00,0.0172
2745.00,0.0172
2744.00,0.0171
2743.00,0.0171
2742.00,0.0170
2741.00,0.0170
2740.00,0.0170
2739.00,0.0169
2738.00,0.0169
2737.00,0.0168
2736.00,0.0168
2735.00,0.0167
2734.00,0.0167
2733.00,0.0166
2732.00,0.0166
2731.00,0.0165
2730.00,0.0165
2729.00,0.0164
2728.00,0.0164
2727.00,0.0164
2726.00,0.0163
2725.00,0.0163
2724.00,0.0162
2723.00,0.0161
2722.00,0.0161
2721.00,0.0160
2720.00,0.0160
2719.00,0.0160
2718.00,0.0159
2717.00,0.0159
2716.00,0.0159
2715.00,0.0158
2714.00,0.0158
2713.00,0.0157
2712.00,0.0157
2711.00,0.0156
2710.00,0.0156
2709.00,0.0156
2708.00,0.0155
2707.00,0.0155
2706.00,0.0154
2705.00,0.0154
2704.00,0.0154
2703.00,0.0153
2702.00,0.0153
2701.00,0.0152
2700.00,0.0152
2699.00,0.0151
2698.00,0.0151
2697.00,0.0150
2696.00,0.0150
2695.00,0.0150
2694.00,0.0150
2693.00,0.0150
2692.00,0.0149
2691.00,0.0149
2690.00,0.0149
2689.00,0.0148
2688.00,0.0148
2687.00,0.0148
2686.00,0.0147
2685.00,0.0147
2684.00,0.0147
2683.00,0.0147
2682.00,0.0146
2681.00,0.0146
2680.00,0.0146
2679.00,0.0145
2678.00,0.0144
2677.00,0.0144
2676.00,0.0144
2675.00,0.0143
2674.00,0.0143
2673.00,0.0143
2672.00,0.0143
2671.00,0.0143
2670.00,0.0142
2669.00,0.0142
2668.00,0.0142
2667.00,0.0142
2666.00,0.0142
2665.00,0.0142
2664.00,0.0143
2663.00,0.0143
2662.00,0.0144
2661.00,0.0144
2660.00,0.0144
2659.00,0.0144
2658.00,0.0144
2657.00,0.0144
2656.00,0.0144
2655.00,0.0143
2654.00,0.0143
2653.00,0.0142
2652.00,0.0142
2651.00,0.0141
2650.00,0.0141
2649.00,0.0141
2648.00,0.0140
2647.00,0.0140
2646.00,0.0140
2645.00,0.0140
2644.00,0.0139
2643.00,0.0139
2642.00,0.0138
2641.00,0.0138
2640.00,0.0137
2639.00,0.0136
2638.00,0.0136
2637.00,0.0135
2636.00,0.0135
2635.00,0.0134
2634.00,0.0134
2633.00,0.0134
2632.00,0.0134
2631.00,0.0134
2630.00,0.0133
2629.00,0.0133
2628.00,0.0132
2627.00,0.0132
2626.00,0.0131
2625.00,0.0129
2624.00,0.0129
2623.00,0.0129
2622.00,0.0128
2621.00,0.0128
2620.00,0.0128
2619.00,0.0127
2618.00,0.0127
2617.00,0.0127
2616.00,0.0127
2615.00,0.0127
2614.00,0.0126
2613.00,0.0126
2612.00,0.0125
2611.00,0.0125
2610.00,0.0124
2609.00,0.0124
2608.00,0.0124
2607.00,0.0123
2606.00,0.0122
2605.00,0.0122
2604.00,0.0122
2603.00,0.0121
2602.00,0.0121
2601.00,0.0120
2600.00,0.0120
2599.00,0.0119
2598.00,0.0119
2597.00,0.0119
2596.00,0.0119
2595.00,0.0118
2594.00,0.0118
2593.00,0.0118
2592.00,0.0118
2591.00,0.0118
2590.00,0.0117
2589.00,0.0117
2588.00,0.0117
2587.00,0.0117
2586.00,0.0117
2585.00,0.0116
2584.00,0.0116
2583.00,0.0116
2582.00,0.0115
2581.00,0.0115
2580.00,0.0115
2579.00,0.0115
2578.00,0.0114
2577.00,0.0114
2576.00,0.0113
2575.00,0.0113
2574.00,0.0113
2573.00,0.0112
2572.00,0.0112
2571.00,0.0112
2570.00,0.0112
2569.00,0.0112
2568.00,0.0112
2567.00,0.0112
2566.00,0.0112
2565.00,0.0112
2564.00,0.0112
2563.00,0.0111
2562.00,0.0111
2561.00,0.0111
2560.00,0.0111
2559.00,0.0111
2558.00,0.0110
2557.00,0.0110
2556.00,0.0110
2555.00,0.0110
2554.00,0.0109
2553.00,0.0109
2552.00,0.0108
2551.00,0.0108
2550.00,0.0108
2549.00,0.0109
2548.00,0.0109
2547.00,0.0108
2546.00,0.0108
2545.00,0.0107
2544.00,0.0107
2543.00,0.0107
2542.00,0.0106
2541.00,0.0107
2540.00,0.0107
2539.00,0.0108
2538.00,0.0108
2537.00,0.0107
2536.00,0.0107
2535.00,0.0106
2534.00,0.0106
2533.00,0.0106
2532.00,0.0106
2531.00,0.0106
2530.00,0.0105
2529.00,0.0105
2528.00,0.0105
2527.00,0.0105
2526.00,0.0105
2525.00,0.0105
2524.00,0.0105
2523.00,0.0105
2522.00,0.0105
2521.00,0.0105
2520.00,0.0105
2519.00,0.0105
2518.00,0.0105
2517.00,0.0105
2516.00,0.0104
2515.00,0.0104
2514.00,0.0104
2513.00,0.0103
2512.00,0.0103
2511.00,0.0104
2510.00,0.0104
2509.00,0.0104
2508.00,0.0104
2507.00,0.0104
2506.00,0.0104
2505.00,0.0103
2504.00,0.0103
2503.00,0.0103
2502.00,0.0103
2501.00,0.0103
2500.00,0.0103
2499.00,0.0103
2498.00,0.0103
2497.00,0.0103
2496.00,0.0103
2495.00,0.0103
2494.00,0.0103
2493.00,0.0102
2492.00,0.0102
2491.00,0.0102
2490.00,0.0102
2489.00,0.0102
2488.00,0.0102
2487.00,0.0102
2486.00,0.0101
2485.00,0.0101
2484.00,0.0101
2483.00,0.0101
2482.00,0.0102
2481.00,0.0102
2480.00,0.0102
2479.00,0.0102
2478.00,0.0102
2477.00,0.0102
2476.00,0.0102
2475.00,0.0102
2474.00,0.0102
2473.00,0.0101
2472.00,0.0101
2471.00,0.0100
2470.00,0.0100
2469.00,0.0100
2468.00,0.0100
2467.00,0.0100
2466.00,0.0100
2465.00,0.0100
2464.00,0.0100
2463.00,0.0100
2462.00,0.0101
2461.00,0.0101
2460.00,0.0102
2459.00,0.0102
2458.00,0.0102
2457.00,0.0102
2456.00,0.0103
2455.00,0.0103
2454.00,0.0103
2453.00,0.0103
2452.00,0.0103
2451.00,0.0102
2450.00,0.0102
2449.00,0.0102
2448.00,0.0101
2447.00,0.0101
2446.00,0.0101
2445.00,0.0101
2444.00,0.0101
2443.00,0.0101
2442.00,0.0101
2441.00,0.0100
2440.00,0.0100
2439.00,0.0100
2438.00,0.0100
2437.00,0.0100
2436.00,0.0100
2435.00,0.0100
2434.00,0.0100
2433.00,0.0100
2432.00,0.0099
2431.00,0.0099
2430.00,0.0099
2429.00,0.0099
2428.00,0.0099
2427.00,0.0098
2426.00,0.0098
2425.00,0.0098
2424.00,0.0097
2423.00,0.0097
2422.00,0.0097
2421.00,0.0098
2420.00,0.0099
2419.00,0.0099
2418.00,0.0100
2417.00,0.0100
2416.00,0.0099
2415.00,0.0099
2414.00,0.0099
2413.00,0.0100
2412.00,0.0100
2411.00,0.0100
2410.00,0.0100
2409.00,0.0100
2408.00,0.0100
2407.00,0.0099
2406.00,0.0097
2405.00,0.0097
2404.00,0.0097
2403.00,0.0097
2402.00,0.0097
2401.00,0.0097
2400.00,0.0097
2399.00,0.0098
2398.00,0.0098
2397.00,0.0098
2396.00,0.0098
2395.00,0.0098
2394.00,0.0098
2393.00,0.0098
2392.00,0.0099
2391.00,0.0099
2390.00,0.0099
2389.00,0.0099
2388.00,0.0099
2387.00,0.0099
2386.00,0.0099
2385.00,0.0099
2384.00,0.0098
2383.00,0.0098
2382.00,0.0097
2381.00,0.0096
2380.00,0.0095
2379.00,0.0095
2378.00,0.0095
2377.00,0.0095
2376.00,0.0096
2375.00,0.0097
2374.00,0.0097
2373.00,0.0097
2372.00,0.0098
2371.00,0.0098
2370.00,0.0097
2369.00,0.0097
2368.00,0.0096
2367.00,0.0096
2366.00,0.0096
2365.00,0.0096
2364.00,0.0097
2363.00,0.0098
2362.00,0.0099
2361.00,0.0099
2360.00,0.0100
2359.00,0.0100
2358.00,0.0100
2357.00,0.0100
2356.00,0.0101
2355.00,0.0101
2354.00,0.0102
2353.00,0.0102
2352.00,0.0102
2351.00,0.0102
2350.00,0.0102
2349.00,0.0103
2348.00,0.0103
2347.00,0.0103
2346.00,0.0103
2345.00,0.0103
2344.00,0.0104
2343.00,0.0106
2342.00,0.0107
2341.00,0.0107
2340.00,0.0108
2339.00,0.0109
2338.00,0.0109
2337.00,0.0109
2336.00,0.0109
2335.00,0.0110
2334.00,0.0110
2333.00,0.0109
2332.00,0.0108
2331.00,0.0108
2330.00,0.0109
2329.00,0.0110
2328.00,0.0113
2327.00,0.0117
2326.00,0.0123
2325.00,0.0127
2324.00,0.0129
2323.00,0.0129
2322.00,0.0126
2321.00,0.0124
2320.00,0.0123
2319.00,0.0122
2318.00,0.0121
2317.00,0.0121
2316.00,0.0120
2315.00,0.0119
2314.00,0.0118
2313.00,0.0118
2312.00,0.0117
2311.00,0.0118
2310.00,0.0118
2309.00,0.0118
2308.00,0.0118
2307.00,0.0118
2306.00,0.0118
2305.00,0.0118
2304.00,0.0118
2303.00,0.0118
2302.00,0.0118
2301.00,0.0117
2300.00,0.0118
2299.00,0.0118
2298.00,0.0118
2297.00,0.0119
2296.00,0.0120
2295.00,0.0121
2294.00,0.0122
2293.00,0.0124
2292.00,0.0125
2291.00,0.0125
2290.00,0.0125
2289.00,0.0126
2288.00,0.0126
2287.00,0.0127
2286.00,0.0127
2285.00,0.0127
2284.00,0.0127
2283.00,0.0126
2282.00,0.0125
2281.00,0.0124
2280.00,0.0123
2279.00,0.0122
2278.00,0.0121
2277.00,0.0120
2276.00,0.0119
2275.00,0.0118
2274.00,0.0118
2273.00,0.0118
2272.00,0.0118
2271.00,0.0118
2270.00,0.0118
2269.00,0.0118
2268.00,0.0118
2267.00,0.0119
2266.00,0.0119
2265.00,0.0119
2264.00,0.0118
2263.00,0.0117
2262.00,0.0117
2261.00,0.0117
2260.00,0.0118
2259.00,0.0118
2258.00,0.0118
2257.00,0.0118
2256.00,0.0117
2255.00,0.0115
2254.00,0.0114
2253.00,0.0113
2252.00,0.0114
2251.00,0.0114
2250.00,0.0115
2249.00,0.0115
2248.00,0.0115
2247.00,0.0115
2246.00,0.0114
2245.00,0.0114
2244.00,0.0115
2243.00,0.0116
2242.00,0.0117
2241.00,0.0117
2240.00,0.0117
2239.00,0.0118
2238.00,0.0118
2237.00,0.0119
2236.00,0.0118
2235.00,0.0117
2234.00,0.0116
2233.00,0.0115
2232.00,0.0115
2231.00,0.0115
2230.00,0.0115
2229.00,0.0115
2228.00,0.0114
2227.00,0.0113
2226.00,0.0111
2225.00,0.0111
2224.00,0.0111
2223.00,0.0112
2222.00,0.0113
2221.00,0.0114
2220.00,0.0114
2219.00,0.0113
2218.00,0.0112
2217.00,0.0111
2216.00,0.0110
2215.00,0.0109
2214.00,0.0108
2213.00,0.0108
2212.00,0.0109
2211.00,0.0110
2210.00,0.0110
2209.00,0.0111
2208.00,0.0111
2207.00,0.0110
2206.00,0.0110
2205.00,0.0110
2204.00,0.0112
2203.00,0.0113
2202.00,0.0113
2201.00,0.0112
2200.00,0.0111
2199.00,0.0110
2198.00,0.0111
2197.00,0.0112
2196.00,0.0111
2195.00,0.0110
2194.00,0.0109
2193.00,0.0109
2192.00,0.0112
2191.00,0.0114
2190.00,0.0115
2189.00,0.0115
2188.00,0.0114
2187.00,0.0112
2186.00,0.0110
2185.00,0.0108
2184.00,0.0106
2183.00,0.0102
2182.00,0.0099
2181.00,0.0098
2180.00,0.0099
2179.00,0.0102
2178.00,0.0104
2177.00,0.0105
2176.00,0.0106
2175.00,0.0105
2174.00,0.0105
2173.00,0.0105
2172.00,0.0106
2171.00,0.0107
2170.00,0.0109
2169.00,0.0111
2168.00,0.0113
2167.00,0.0114
2166.00,0.0114
2165.00,0.0115
2164.00,0.0117
2163.00,0.0119
2162.00,0.0117
2161.00,0.0111
2160.00,0.0101
2159.00,0.0087
2158.00,0.0074
2157.00,0.0067
2156.00,0.0065
2155.00,0.0065
2154.00,0.0067
2153.00,0.0071
2152.00,0.0076
2151.00,0.0080
2150.00,0.0084
2149.00,0.0085
2148.00,0.0086
2147.00,0.0086
2146.00,0.0085
2145.00,0.0086
2144.00,0.0088
2143.00,0.0090
2142.00,0.0092
2141.00,0.0093
2140.00,0.0094
2139.00,0.0094
2138.00,0.0094
2137.00,0.0093
2136.00,0.0092
2135.00,0.0090
2134.00,0.0088
2133.00,0.0087
2132.00,0.0087
2131.00,0.0089
2130.00,0.0092
2129.00,0.0095
2128.00,0.0098
2127.00,0.0101
2126.00,0.0103
2125.00,0.0105
2124.00,0.0107
2123.00,0.0108
2122.00,0.0109
2121.00,0.0110
2120.00,0.0112
2119.00,0.0113
2118.00,0.0114
2117.00,0.0115
2116.00,0.0116
2115.00,0.0117
2114.00,0.0118
2113.00,0.0119
2112.00,0.0120
2111.00,0.0121
2110.00,0.0121
2109.00,0.0121
2108.00,0.0120
2107.00,0.0120
2106.00,0.0120
2105.00,0.0121
2104.00,0.0123
2103.00,0.0123
2102.00,0.0123
2101.00,0.0123
2100.00,0.0122
2099.00,0.0121
2098.00,0.0119
2097.00,0.0117
2096.00,0.0115
2095.00,0.0113
2094.00,0.0111
2093.00,0.0109
2092.00,0.0109
2091.00,0.0110
2090.00,0.0112
2089.00,0.0114
2088.00,0.0116
2087.00,0.0117
2086.00,0.0118
2085.00,0.0118
2084.00,0.0117
2083.00,0.0117
2082.00,0.0116
2081.00,0.0116
2080.00,0.0116
2079.00,0.0115
2078.00,0.0113
2077.00,0.0112
2076.00,0.0112
2075.00,0.0112
2074.00,0.0112
2073.00,0.0112
2072.00,0.0112
2071.00,0.0111
2070.00,0.0111
2069.00,0.0112
2068.00,0.0112
2067.00,0.0110
2066.00,0.0107
2065.00,0.0104
2064.00,0.0103
2063.00,0.0102
2062.00,0.0102
2061.00,0.0102
2060.00,0.0102
2059.00,0.0102
2058.00,0.0102
2057.00,0.0102
2056.00,0.0102
2055.00,0.0103
2054.00,0.0103
2053.00,0.0106
2052.00,0.0110
2051.00,0.0113
2050.00,0.0111
2049.00,0.0106
2048.00,0.0100
2047.00,0.0095
2046.00,0.0092
2045.00,0.0091
2044.00,0.0092
2043.00,0.0092
2042.00,0.0091
2041.00,0.0089
2040.00,0.0088
2039.00,0.0087
2038.00,0.0086
2037.00,0.0086
2036.00,0.0085
2035.00,0.0083
2034.00,0.0079
2033.00,0.0075
2032.00,0.0072
2031.00,0.0070
2030.00,0.0068
2029.00,0.0068
2028.00,0.0068
2027.00,0.0068
2026.00,0.0069
2025.00,0.0070
2024.00,0.0070
2023.00,0.0070
2022.00,0.0069
2021.00,0.0067
2020.00,0.0066
2019.00,0.0065
2018.00,0.0065
2017.00,0.0066
2016.00,0.0067
2015.00,0.0068
2014.00,0.0068
2013.00,0.0070
2012.00,0.0073
2011.00,0.0074
2010.00,0.0074
2009.00,0.0073
2008.00,0.0070
2007.00,0.0066
2006.00,0.0060
2005.00,0.0057
2004.00,0.0057
2003.00,0.0059
2002.00,0.0061
2001.00,0.0063
2000.00,0.0066
1999.00,0.0069
1998.00,0.0070
1997.00,0.0073
1996.00,0.0076
1995.00,0.0079
1994.00,0.0080
1993.00,0.0080
1992.00,0.0081
1991.00,0.0082
1990.00,0.0083
1989.00,0.0085
1988.00,0.0086
1987.00,0.0087
1986.00,0.0085
1985.00,0.0083
1984.00,0.0082
1983.00,0.0083
1982.00,0.0084
1981.00,0.0087
1980.00,0.0089
1979.00,0.0086
1978.00,0.0078
1977.00,0.0069
1976.00,0.0063
1975.00,0.0061
1974.00,0.0059
1973.00,0.0059
1972.00,0.0059
1971.00,0.0059
1970.00,0.0057
1969.00,0.0056
1968.00,0.0055
1967.00,0.0054
1966.00,0.0054
1965.00,0.0056
1964.00,0.0061
1963.00,0.0065
1962.00,0.0067
1961.00,0.0066
1960.00,0.0064
1959.00,0.0061
1958.00,0.0060
1957.00,0.0061
1956.00,0.0064
1955.00,0.0068
1954.00,0.0070
1953.00,0.0070
1952.00,0.0071
1951.00,0.0070
1950.00,0.0068
1949.00,0.0067
1948.00,0.0067
1947.00,0.0068
1946.00,0.0068
1945.00,0.0068
1944.00,0.0069
1943.00,0.0069
1942.00,0.0069
1941.00,0.0070
1940.00,0.0071
1939.00,0.0072
1938.00,0.0073
1937.00,0.0072
1936.00,0.0072
1935.00,0.0072
1934.00,0.0071
1933.00,0.0071
1932.00,0.0070
1931.00,0.0069
1930.00,0.0068
1929.00,0.0068
1928.00,0.0068
1927.00,0.0069
1926.00,0.0068
1925.00,0.0068
1924.00,0.0068
1923.00,0.0068
1922.00,0.0068
1921.00,0.0069
1920.00,0.0071
1919.00,0.0073
1918.00,0.0074
1917.00,0.0074
1916.00,0.0074
1915.00,0.0073
1914.00,0.0072
1913.00,0.0070
1912.00,0.0070
1911.00,0.0070
1910.00,0.0070
1909.00,0.0069
1908.00,0.0070
1907.00,0.0071
1906.00,0.0072
1905.00,0.0072
1904.00,0.0073
1903.00,0.0072
1902.00,0.0071
1901.00,0.0070
1900.00,0.0070
1899.00,0.0069
1898.00,0.0069
1897.00,0.0069
1896.00,0.0069
1895.00,0.0070
1894.00,0.0070
1893.00,0.0069
1892.00,0.0067
1891.00,0.0067
1890.00,0.0066
1889.00,0.0067
1888.00,0.0067
1887.00,0.0067
1886.00,0.0067
1885.00,0.0066
1884.00,0.0066
1883.00,0.0066
1882.00,0.0066
1881.00,0.0065
1880.00,0.0065
1879.00,0.0065
1878.00,0.0064
1877.00,0.0064
1876.00,0.0065
1875.00,0.0065
1874.00,0.0064
1873.00,0.0064
1872.00,0.0063
1871.00,0.0062
1870.00,0.0061
1869.00,0.0061
1868.00,0.0062
1867.00,0.0062
1866.00,0.0063
1865.00,0.0063
1864.00,0.0064
1863.00,0.0064
1862.00,0.0064
1861.00,0.0063
1860.00,0.0063
1859.00,0.0063
1858.00,0.0063
1857.00,0.0063
1856.00,0.0063
1855.00,0.0062
1854.00,0.0062
1853.00,0.0061
1852.00,0.0060
1851.00,0.0060
1850.00,0.0059
1849.00,0.0058
1848.00,0.0058
1847.00,0.0058
1846.00,0.0058
1845.00,0.0059
1844.00,0.0060
1843.00,0.0061
1842.00,0.0062
1841.00,0.0062
1840.00,0.0062
1839.00,0.0061
1838.00,0.0061
1837.00,0.0061
1836.00,0.0060
1835.00,0.0060
1834.00,0.0058
1833.00,0.0057
1832.00,0.0057
1831.00,0.0058
1830.00,0.0058
1829.00,0.0058
1828.00,0.0058
1827.00,0.0058
1826.00,0.0058
1825.00,0.0058
1824.00,0.0059
1823.00,0.0060
1822.00,0.0060
1821.00,0.0060
1820.00,0.0059
1819.00,0.0057
1818.00,0.0056
1817.00,0.0055
1816.00,0.0055
1815.00,0.0056
1814.00,0.0057
1813.00,0.0058
1812.00,0.0058
1811.00,0.0058
1810.00,0.0058
1809.00,0.0058
1808.00,0.0058
1807.00,0.0059
1806.00,0.0058
1805.00,0.0058
1804.00,0.0057
1803.00,0.0056
1802.00,0.0056
1801.00,0.0057
1800.00,0.0058
1799.00,0.0059
1798.00,0.0058
1797.00,0.0057
1796.00,0.0056
1795.00,0.0056
1794.00,0.0057
1793.00,0.0057
1792.00,0.0057
1791.00,0.0057
1790.00,0.0057
1789.00,0.0058
1788.00,0.0058
1787.00,0.0057
1786.00,0.0057
1785.00,0.0056
1784.00,0.0056
1783.00,0.0057
1782.00,0.0057
1781.00,0.0058
1780.00,0.0059
1779.00,0.0058
1778.00,0.0057
1777.00,0.0056
1776.00,0.0055
1775.00,0.0055
1774.00,0.0056
1773.00,0.0057
1772.00,0.0058
1771.00,0.0058
1770.00,0.0057
1769.00,0.0058
1768.00,0.0059
1767.00,0.0059
1766.00,0.0059
1765.00,0.0059
1764.00,0.0059
1763.00,0.0059
1762.00,0.0060
1761.00,0.0060
1760.00,0.0060
1759.00,0.0061
1758.00,0.0062
1757.00,0.0064
1756.00,0.0066
1755.00,0.0067
1754.00,0.0067
1753.00,0.0068
1752.00,0.0069
1751.00,0.0071
1750.00,0.0075
1749.00,0.0079
1748.00,0.0084
1747.00,0.0087
1746.00,0.0089
1745.00,0.0090
1744.00,0.0092
1743.00,0.0095
1742.00,0.0098
1741.00,0.0101
1740.00,0.0104
1739.00,0.0105
1738.00,0.0104
1737.00,0.0103
1736.00,0.0105
1735.00,0.0107
1734.00,0.0108
1733.00,0.0110
1732.00,0.0113
1731.00,0.0116
1730.00,0.0119
1729.00,0.0121
1728.00,0.0124
1727.00,0.0126
1726.00,0.0127
1725.00,0.0129
1724.00,0.0132
1723.00,0.0135
1722.00,0.0136
1721.00,0.0137
1720.00,0.0138
1719.00,0.0139
1718.00,0.0142
1717.00,0.0147
1716.00,0.0155
1715.00,0.0162
1714.00,0.0168
1713.00,0.0174
1712.00,0.0179
1711.00,0.0184
1710.00,0.0189
1709.00,0.0194
1708.00,0.0200
1707.00,0.0207
1706.00,0.0215
1705.00,0.0224
1704.00,0.0231
1703.00,0.0239
1702.00,0.0248
1701.00,0.0262
1700.00,0.0279
1699.00,0.0293
1698.00,0.0305
1697.00,0.0321
1696.00,0.0342
1695.00,0.0365
1694.00,0.0383
1693.00,0.0398
1692.00,0.0414
1691.00,0.0430
1690.00,0.0447
1689.00,0.0465
1688.00,0.0482
1687.00,0.0497
1686.00,0.0514
1685.00,0.0537
1684.00,0.0568
1683.00,0.0597
1682.00,0.0618
1681.00,0.0637
1680.00,0.0656
1679.00,0.0674
1678.00,0.0692
1677.00,0.0711
1676.00,0.0733
1675.00,0.0758
1674.00,0.0780
1673.00,0.0800
1672.00,0.0820
1671.00,0.0840
1670.00,0.0864
1669.00,0.0890
1668.00,0.0916
1667.00,0.0938
1666.00,0.0956
1665.00,0.0975
1664.00,0.0997
1663.00,0.1022
1662.00,0.1048
1661.00,0.1072
1660.00,0.1095
1659.00,0.1115
1658.00,0.1131
1657.00,0.1145
1656.00,0.1156
1655.00,0.1168
1654.00,0.1186
1653.00,0.1215
1652.00,0.1242
1651.00,0.1259
1650.00,0.1269
1649.00,0.1274
1648.00,0.1282
1647.00,0.1293
1646.00,0.1306
1645.00,0.1317
1644.00,0.1325
1643.00,0.1330
1642.00,0.1333
1641.00,0.1334
1640.00,0.1335
1639.00,0.1336
1638.00,0.1335
1637.00,0.1333
1636.00,0.1333
1635.00,0.1333
1634.00,0.1332
1633.00,0.1328
1632.00,0.1322
1631.00,0.1314
1630.00,0.1302
1629.00,0.1289
1628.00,0.1275
1627.00,0.1262
1626.00,0.1248
1625.00,0.1233
1624.00,0.1216
1623.00,0.1196
1622.00,0.1177
1621.00,0.1159
1620.00,0.1142
1619.00,0.1124
1618.00,0.1103
1617.00,0.1078
1616.00,0.1053
1615.00,0.1033
1614.00,0.1014
1613.00,0.0995
1612.00,0.0973
1611.00,0.0951
1610.00,0.0928
1609.00,0.0906
1608.00,0.0885
1607.00,0.0864
1606.00,0.0845
1605.00,0.0825
1604.00,0.0806
1603.00,0.0786
1602.00,0.0768
1601.00,0.0749
1600.00,0.0731
1599.00,0.0713
1598.00,0.0697
1597.00,0.0680
1596.00,0.0664
1595.00,0.0648
1594.00,0.0634
1593.00,0.0620
1592.00,0.0606
1591.00,0.0592
1590.00,0.0580
1589.00,0.0569
1588.00,0.0559
1587.00,0.0549
1586.00,0.0540
1585.00,0.0532
1584.00,0.0524
1583.00,0.0516
1582.00,0.0510
1581.00,0.0504
1580.00,0.0498
1579.00,0.0492
1578.00,0.0488
1577.00,0.0486
1576.00,0.0486
1575.00,0.0486
1574.00,0.0485
1573.00,0.0484
1572.00,0.0483
1571.00,0.0483
1570.00,0.0484
1569.00,0.0487
1568.00,0.0490
1567.00,0.0492
1566.00,0.0495
1565.00,0.0498
1564.00,0.0500
1563.00,0.0501
1562.00,0.0501
1561.00,0.0501
1560.00,0.0505
1559.00,0.0519
1558.00,0.0536
1557.00,0.0546
1556.00,0.0552
1555.00,0.0557
1554.00,0.0562
1553.00,0.0567
1552.00,0.0570
1551.00,0.0573
1550.00,0.0576
1549.00,0.0579
1548.00,0.0580
1547.00,0.0578
1546.00,0.0574
1545.00,0.0569
1544.00,0.0566
1543.00,0.0563
1542.00,0.0560
1541.00,0.0558
1540.00,0.0554
1539.00,0.0549
1538.00,0.0542
1537.00,0.0535
1536.00,0.0528
1535.00,0.0519
1534.00,0.0510
1533.00,0.0500
1532.00,0.0490
1531.00,0.0482
1530.00,0.0472
1529.00,0.0462
1528.00,0.0450
1527.00,0.0439
1526.00,0.0429
1525.00,0.0419
1524.00,0.0409
1523.00,0.0399
1522.00,0.0389
1521.00,0.0380
1520.00,0.0373
1519.00,0.0366
1518.00,0.0358
1517.00,0.0349
1516.00,0.0339
1515.00,0.0329
1514.00,0.0318
1513.00,0.0306
1512.00,0.0291
1511.00,0.0276
1510.00,0.0260
1509.00,0.0246
1508.00,0.0235
1507.00,0.0228
1506.00,0.0222
1505.00,0.0215
1504.00,0.0206
1503.00,0.0198
1502.00,0.0190
1501.00,0.0181
1500.00,0.0172
1499.00,0.0164
1498.00,0.0156
1497.00,0.0150
1496.00,0.0144
1495.00,0.0139
1494.00,0.0133
1493.00,0.0127
1492.00,0.0120
1491.00,0.0113
1490.00,0.0108
1489.00,0.0106
1488.00,0.0105
1487.00,0.0105
1486.00,0.0104
1485.00,0.0103
1484.00,0.0102
1483.00,0.0102
1482.00,0.0103
1481.00,0.0104
1480.00,0.0107
1479.00,0.0109
1478.00,0.0111
1477.00,0.0113
1476.00,0.0116
1475.00,0.0121
1474.00,0.0128
1473.00,0.0138
1472.00,0.0149
1471.00,0.0159
1470.00,0.0166
1469.00,0.0170
1468.00,0.0173
1467.00,0.0176
1466.00,0.0180
1465.00,0.0185
1464.00,0.0191
1463.00,0.0195
1462.00,0.0198
1461.00,0.0198
1460.00,0.0198
1459.00,0.0199
1458.00,0.0203
1457.00,0.0212
1456.00,0.0221
1455.00,0.0226
1454.00,0.0228
1453.00,0.0229
1452.00,0.0228
1451.00,0.0226
1450.00,0.0225
1449.00,0.0223
1448.00,0.0223
1447.00,0.0223
1446.00,0.0224
1445.00,0.0224
1444.00,0.0224
1443.00,0.0223
1442.00,0.0223
1441.00,0.0221
1440.00,0.0220
1439.00,0.0218
1438.00,0.0218
1437.00,0.0220
1436.00,0.0223
1435.00,0.0227
1434.00,0.0230
1433.00,0.0232
1432.00,0.0235
1431.00,0.0238
1430.00,0.0242
1429.00,0.0247
1428.00,0.0251
1427.00,0.0255
1426.00,0.0257
1425.00,0.0261
1424.00,0.0265
1423.00,0.0269
1422.00,0.0271
1421.00,0.0273
1420.00,0.0275
1419.00,0.0278
1418.00,0.0284
1417.00,0.0289
1416.00,0.0292
1415.00,0.0293
1414.00,0.0292
1413.00,0.0291
1412.00,0.0289
1411.00,0.0287
1410.00,0.0285
1409.00,0.0283
1408.00,0.0279
1407.00,0.0275
1406.00,0.0271
1405.00,0.0268
1404.00,0.0265
1403.00,0.0261
1402.00,0.0256
1401.00,0.0250
1400.00,0.0243
1399.00,0.0237
1398.00,0.0230
1397.00,0.0225
1396.00,0.0220
1395.00,0.0217
1394.00,0.0215
1393.00,0.0213
1392.00,0.0210
1391.00,0.0206
1390.00,0.0202
1389.00,0.0198
1388.00,0.0196
1387.00,0.0195
1386.00,0.0196
1385.00,0.0197
1384.00,0.0198
1383.00,0.0198
1382.00,0.0198
1381.00,0.0198
1380.00,0.0198
1379.00,0.0198
1378.00,0.0198
1377.00,0.0197
1376.00,0.0197
1375.00,0.0196
1374.00,0.0196
1373.00,0.0198
1372.00,0.0199
1371.00,0.0199
1370.00,0.0198
1369.00,0.0197
1368.00,0.0195
1367.00,0.0193
1366.00,0.0190
1365.00,0.0185
1364.00,0.0180
1363.00,0.0176
1362.00,0.0174
1361.00,0.0173
1360.00,0.0173
1359.00,0.0171
1358.00,0.0169
1357.00,0.0166
1356.00,0.0163
1355.00,0.0160
1354.00,0.0157
1353.00,0.0154
1352.00,0.0151
1351.00,0.0147
1350.00,0.0142
1349.00,0.0138
1348.00,0.0134
1347.00,0.0130
1346.00,0.0125
1345.00,0.0120
1344.00,0.0114
1343.00,0.0108
1342.00,0.0101
1341.00,0.0094
1340.00,0.0088
1339.00,0.0084
1338.00,0.0081
1337.00,0.0079
1336.00,0.0077
1335.00,0.0074
1334.00,0.0071
1333.00,0.0067
1332.00,0.0064
1331.00,0.0061
1330.00,0.0059
1329.00,0.0058
1328.00,0.0057
1327.00,0.0057
1326.00,0.0057
1325.00,0.0058
1324.00,0.0059
1323.00,0.0060
1322.00,0.0061
1321.00,0.0062
1320.00,0.0064
1319.00,0.0066
1318.00,0.0068
1317.00,0.0070
1316.00,0.0072
1315.00,0.0073
1314.00,0.0073
1313.00,0.0074
1312.00,0.0076
1311.00,0.0077
1310.00,0.0078
1309.00,0.0079
1308.00,0.0081
1307.00,0.0083
1306.00,0.0085
1305.00,0.0089
1304.00,0.0093
1303.00,0.0097
1302.00,0.0102
1301.00,0.0108
1300.00,0.0114
1299.00,0.0121
1298.00,0.0130
1297.00,0.0139
1296.00,0.0150
1295.00,0.0161
1294.00,0.0174
1293.00,0.0187
1292.00,0.0202
1291.00,0.0218
1290.00,0.0236
1289.00,0.0255
1288.00,0.0276
1287.00,0.0298
1286.00,0.0321
1285.00,0.0345
1284.00,0.0370
1283.00,0.0396
1282.00,0.0422
1281.00,0.0448
1280.00,0.0476
1279.00,0.0503
1278.00,0.0531
1277.00,0.0559
1276.00,0.0587
1275.00,0.0615
1274.00,0.0643
1273.00,0.0670
1272.00,0.0698
1271.00,0.0726
1270.00,0.0754
1269.00,0.0782
1268.00,0.0809
1267.00,0.0836
1266.00,0.0862
1265.00,0.0887
1264.00,0.0910
1263.00,0.0932
1262.00,0.0954
1261.00,0.0974
1260.00,0.0994
1259.00,0.1013
1258.00,0.1030
1257.00,0.1046
1256.00,0.1061
1255.00,0.1076
1254.00,0.1089
1253.00,0.1101
1252.00,0.1113
1251.00,0.1124
1250.00,0.1135
1249.00,0.1145
1248.00,0.1156
1247.00,0.1167
1246.00,0.1177
1245.00,0.1186
1244.00,0.1196
1243.00,0.1207
1242.00,0.1217
1241.00,0.1227
1240.00,0.1238
1239.00,0.1249
1238.00,0.1260
1237.00,0.1271
1236.00,0.1283
1235.00,0.1294
1234.00,0.1305
1233.00,0.1315
1232.00,0.1326
1231.00,0.1336
1230.00,0.1346
1229.00,0.1357
1228.00,0.1368
1227.00,0.1378
1226.00,0.1387
1225.00,0.1397
1224.00,0.1405
1223.00,0.1413
1222.00,0.1418
1221.00,0.1422
1220.00,0.1425
1219.00,0.1425
1218.00,0.1424
1217.00,0.1420
1216.00,0.1414
1215.00,0.1406
1214.00,0.1394
1213.00,0.1381
1212.00,0.1364
1211.00,0.1345
1210.00,0.1323
1209.00,0.1300
1208.00,0.1276
1207.00,0.1250
1206.00,0.1222
1205.00,0.1194
1204.00,0.1164
1203.00,0.1134
1202.00,0.1103
1201.00,0.1072
1200.00,0.1043
1199.00,0.1014
1198.00,0.0987
1197.00,0.0961
1196.00,0.0936
1195.00,0.0913
1194.00,0.0891
1193.00,0.0870
1192.00,0.0850
1191.00,0.0831
1190.00,0.0812
1189.00,0.0794
1188.00,0.0777
1187.00,0.0761
1186.00,0.0747
1185.00,0.0735
1184.00,0.0726
1183.00,0.0717
1182.00,0.0711
1181.00,0.0706
1180.00,0.0703
1179.00,0.0702
1178.00,0.0701
1177.00,0.0702
1176.00,0.0704
1175.00,0.0709
1174.00,0.0716
1173.00,0.0725
1172.00,0.0737
1171.00,0.0751
1170.00,0.0766
1169.00,0.0784
1168.00,0.0803
1167.00,0.0823
1166.00,0.0844
1165.00,0.0866
1164.00,0.0888
1163.00,0.0910
1162.00,0.0932
1161.00,0.0953
1160.00,0.0973
1159.00,0.0992
1158.00,0.1009
1157.00,0.1025
1156.00,0.1039
1155.00,0.1051
1154.00,0.1061
1153.00,0.1070
1152.00,0.1076
1151.00,0.1080
1150.00,0.1082
1149.00,0.1081
1148.00,0.1079
1147.00,0.1074
1146.00,0.1067
1145.00,0.1059
1144.00,0.1050
1143.00,0.1040
1142.00,0.1029
1141.00,0.1018
1140.00,0.1008
1139.00,0.0998
1138.00,0.0988
1137.00,0.0977
1136.00,0.0967
1135.00,0.0957
1134.00,0.0949
1133.00,0.0942
1132.00,0.0938
1131.00,0.0936
1130.00,0.0937
1129.00,0.0940
1128.00,0.0944
1127.00,0.0947
1126.00,0.0947
1125.00,0.0944
1124.00,0.0936
1123.00,0.0924
1122.00,0.0909
1121.00,0.0891
1120.00,0.0873
1119.00,0.0854
1118.00,0.0835
1117.00,0.0817
1116.00,0.0801
1115.00,0.0787
1114.00,0.0776
1113.00,0.0767
1112.00,0.0762
1111.00,0.0759
1110.00,0.0758
1109.00,0.0761
1108.00,0.0766
1107.00,0.0773
1106.00,0.0783
1105.00,0.0795
1104.00,0.0809
1103.00,0.0823
1102.00,0.0839
1101.00,0.0855
1100.00,0.0872
1099.00,0.0888
1098.00,0.0906
1097.00,0.0924
1096.00,0.0942
1095.00,0.0960
1094.00,0.0978
1093.00,0.0996
1092.00,0.1015
1091.00,0.1035
1090.00,0.1055
1089.00,0.1077
1088.00,0.1099
1087.00,0.1123
1086.00,0.1148
1085.00,0.1173
1084.00,0.1200
1083.00,0.1226
1082.00,0.1252
1081.00,0.1279
1080.00,0.1306
1079.00,0.1333
1078.00,0.1358
1077.00,0.1381
1076.00,0.1401
1075.00,0.1418
1074.00,0.1430
1073.00,0.1438
1072.00,0.1441
1071.00,0.1440
1070.00,0.1435
1069.00,0.1428
1068.00,0.1419
1067.00,0.1411
1066.00,0.1402
1065.00,0.1396
1064.00,0.1391
1063.00,0.1388
1062.00,0.1386
1061.00,0.1387
1060.00,0.1390
1059.00,0.1395
1058.00,0.1402
1057.00,0.1412
1056.00,0.1424
1055.00,0.1437
1054.00,0.1451
1053.00,0.1466
1052.00,0.1482
1051.00,0.1500
1050.00,0.1519
1049.00,0.1541
1048.00,0.1565
1047.00,0.1588
1046.00,0.1611
1045.00,0.1633
1044.00,0.1653
1043.00,0.1670
1042.00,0.1686
1041.00,0.1700
1040.00,0.1714
1039.00,0.1726
1038.00,0.1737
1037.00,0.1747
1036.00,0.1759
1035.00,0.1772
1034.00,0.1785
1033.00,0.1801
1032.00,0.1818
1031.00,0.1835
1030.00,0.1852
1029.00,0.1868
1028.00,0.1886
1027.00,0.1903
1026.00,0.1920
1025.00,0.1939
1024.00,0.1958
1023.00,0.1977
1022.00,0.1994
1021.00,0.2011
1020.00,0.2025
1019.00,0.2037
1018.00,0.2045
1017.00,0.2049
1016.00,0.2050
1015.00,0.2046
1014.00,0.2037
1013.00,0.2025
1012.00,0.2008
1011.00,0.1987
1010.00,0.1963
1009.00,0.1938
1008.00,0.1911
1007.00,0.1882
1006.00,0.1852
1005.00,0.1823
1004.00,0.1794
1003.00,0.1764
1002.00,0.1733
1001.00,0.1702
1000.00,0.1672
999.00,0.1640
998.00,0.1607
997.00,0.1571
996.00,0.1533
995.00,0.1494
994.00,0.1453
993.00,0.1411
992.00,0.1368
991.00,0.1323
990.00,0.1278
989.00,0.1233
988.00,0.1190
987.00,0.1147
986.00,0.1106
985.00,0.1067
984.00,0.1029
983.00,0.0995
982.00,0.0962
981.00,0.0931
980.00,0.0902
979.00,0.0875
978.00,0.0848
977.00,0.0822
976.00,0.0796
975.00,0.0769
974.00,0.0742
973.00,0.0714
972.00,0.0685
971.00,0.0656
970.00,0.0625
969.00,0.0594
968.00,0.0562
967.00,0.0529
966.00,0.0498
965.00,0.0467
964.00,0.0437
963.00,0.0408
962.00,0.0381
961.00,0.0356
960.00,0.0333
959.00,0.0312
958.00,0.0292
957.00,0.0274
956.00,0.0258
955.00,0.0243
954.00,0.0229
953.00,0.0217
952.00,0.0206
951.00,0.0197
950.00,0.0189
949.00,0.0182
948.00,0.0177
947.00,0.0173
946.00,0.0173
945.00,0.0174
944.00,0.0178
943.00,0.0183
942.00,0.0190
941.00,0.0199
940.00,0.0208
939.00,0.0217
938.00,0.0226
937.00,0.0233
936.00,0.0239
935.00,0.0243
934.00,0.0243
933.00,0.0241
932.00,0.0235
931.00,0.0225
930.00,0.0213
929.00,0.0198
928.00,0.0182
927.00,0.0164
926.00,0.0147
925.00,0.0129
924.00,0.0113
923.00,0.0098
922.00,0.0085
921.00,0.0074
920.00,0.0066
919.00,0.0059
918.00,0.0055
917.00,0.0053
916.00,0.0052
915.00,0.0051
914.00,0.0052
913.00,0.0054
912.00,0.0058
911.00,0.0063
910.00,0.0067
909.00,0.0072
908.00,0.0075
907.00,0.0078
906.00,0.0080
905.00,0.0081
904.00,0.0082
903.00,0.0081
902.00,0.0081
901.00,0.0080
900.00,0.0079
899.00,0.0079
898.00,0.0078
897.00,0.0077
896.00,0.0076
895.00,0.0076
894.00,0.0077
893.00,0.0079
892.00,0.0080
891.00,0.0082
890.00,0.0083
889.00,0.0085
888.00,0.0087
887.00,0.0088
886.00,0.0088
885.00,0.0086
884.00,0.0083
883.00,0.0079
882.00,0.0073
881.00,0.0067
880.00,0.0062
879.00,0.0058
878.00,0.0055
877.00,0.0053
876.00,0.0052
875.00,0.0052
874.00,0.0053
873.00,0.0054
872.00,0.0054
871.00,0.0054
870.00,0.0054
869.00,0.0054
868.00,0.0054
867.00,0.0054
866.00,0.0055
865.00,0.0056
864.00,0.0058
863.00,0.0061
862.00,0.0065
861.00,0.0070
860.00,0.0077
859.00,0.0084
858.00,0.0092
857.00,0.0101
856.00,0.0112
855.00,0.0124
854.00,0.0136
853.00,0.0150
852.00,0.0164
851.00,0.0178
850.00,0.0192
849.00,0.0205
848.00,0.0219
847.00,0.0232
846.00,0.0244
845.00,0.0256
844.00,0.0268
843.00,0.0281
842.00,0.0294
841.00,0.0307
840.00,0.0322
839.00,0.0337
838.00,0.0353
837.00,0.0369
836.00,0.0384
835.00,0.0396
834.00,0.0407
833.00,0.0415
832.00,0.0421
831.00,0.0424
830.00,0.0423
829.00,0.0418
828.00,0.0411
827.00,0.0402
826.00,0.0392
825.00,0.0379
824.00,0.0366
823.00,0.0353
822.00,0.0340
821.00,0.0329
820.00,0.0319
819.00,0.0310
818.00,0.0301
817.00,0.0291
816.00,0.0283
815.00,0.0274
814.00,0.0266
813.00,0.0257
812.00,0.0247
811.00,0.0237
810.00,0.0228
809.00,0.0218
808.00,0.0207
807.00,0.0195
806.00,0.0183
805.00,0.0171
804.00,0.0159
803.00,0.0147
802.00,0.0136
801.00,0.0126
800.00,0.0117
799.00,0.0110
798.00,0.0102
797.00,0.0097
796.00,0.0093
795.00,0.0090
794.00,0.0088
793.00,0.0088
792.00,0.0088
791.00,0.0088
790.00,0.0088
789.00,0.0091
788.00,0.0094
787.00,0.0098
786.00,0.0101
785.00,0.0104
784.00,0.0108
783.00,0.0112
782.00,0.0117
781.00,0.0122
780.00,0.0128
779.00,0.0134
778.00,0.0139
777.00,0.0144
776.00,0.0148
775.00,0.0152
774.00,0.0155
773.00,0.0157
772.00,0.0159
771.00,0.0159
770.00,0.0158
769.00,0.0155
768.00,0.0153
767.00,0.0150
766.00,0.0147
765.00,0.0143
764.00,0.0140
763.00,0.0137
762.00,0.0132
761.00,0.0128
760.00,0.0126
759.00,0.0124
758.00,0.0123
757.00,0.0124
756.00,0.0126
755.00,0.0128
754.00,0.0131
753.00,0.0134
752.00,0.0137
751.00,0.0141
750.00,0.0145
749.00,0.0149
748.00,0.0153
747.00,0.0156
746.00,0.0159
745.00,0.0160
744.00,0.0162
743.00,0.0162
742.00,0.0162
741.00,0.0162
740.00,0.0162
739.00,0.0163
738.00,0.0164
737.00,0.0165
736.00,0.0167
735.00,0.0167
734.00,0.0168
733.00,0.0169
732.00,0.0171
731.00,0.0174
730.00,0.0177
729.00,0.0180
728.00,0.0184
727.00,0.0187
726.00,0.0189
725.00,0.0190
724.00,0.0191
723.00,0.0191
722.00,0.0190
721.00,0.0189
720.00,0.0188
719.00,0.0186
718.00,0.0183
717.00,0.0181
716.00,0.0178
715.00,0.0175
714.00,0.0172
713.00,0.0169
712.00,0.0167
711.00,0.0164
710.00,0.0162
709.00,0.0161
708.00,0.0162
707.00,0.0164
706.00,0.0167
705.00,0.0170
704.00,0.0175
703.00,0.0179
702.00,0.0183
701.00,0.0186
700.00,0.0189
699.00,0.0190
698.00,0.0191
697.00,0.0192
696.00,0.0192
695.00,0.0189
694.00,0.0185
693.00,0.0179
692.00,0.0173
691.00,0.0166
690.00,0.0160
689.00,0.0154
688.00,0.0150
687.00,0.0144
686.00,0.0138
685.00,0.0132
684.00,0.0126
683.00,0.0120
682.00,0.0115
681.00,0.0111
680.00,0.0109
679.00,0.0108
678.00,0.0107
677.00,0.0108
676.00,0.0110
675.00,0.0110
674.00,0.0111
673.00,0.0112
672.00,0.0112
671.00,0.0111
670.00,0.0109
669.00,0.0109
668.00,0.0115
667.00,0.0123
666.00,0.0125
665.00,0.0122
664.00,0.0121
663.00,0.0121
662.00,0.0123
661.00,0.0128
660.00,0.0136
659.00,0.0144
658.00,0.0151
657.00,0.0154
656.00,0.0153
655.00,0.0148
654.00,0.0138
653.00,0.0128
652.00,0.0120
651.00,0.0114
650.00,0.0109
649.00,0.0104
648.00,0.0102
647.00,0.0102
646.00,0.0104
645.00,0.0107
644.00,0.0110
643.00,0.0110
642.00,0.0106
641.00,0.0101
640.00,0.0096
639.00,0.0092
638.00,0.0091
637.00,0.0092
636.00,0.0098
635.00,0.0106
634.00,0.0117
633.00,0.0130
632.00,0.0146
631.00,0.0165
630.00,0.0185
629.00,0.0206
628.00,0.0229
627.00,0.0253
626.00,0.0277
625.00,0.0302
624.00,0.0327
623.00,0.0352
622.00,0.0374
621.00,0.0397
620.00,0.0422
619.00,0.0446
618.00,0.0468
617.00,0.0487
616.00,0.0503
615.00,0.0513
614.00,0.0519
613.00,0.0521
612.00,0.0523
611.00,0.0522
610.00,0.0520
609.00,0.0517
608.00,0.0514
607.00,0.0510
606.00,0.0505
605.00,0.0503
604.00,0.0506
603.00,0.0511
602.00,0.0516
601.00,0.0521
600.00,0.0529
599.00,0.0537
598.00,0.0544
597.00,0.0548
596.00,0.0551
595.00,0.0552
594.00,0.0553
593.00,0.0556
592.00,0.0566
591.00,0.0578
590.00,0.0589
589.00,0.0600
588.00,0.0612
587.00,0.0626
586.00,0.0641
585.00,0.0660
584.00,0.0680
583.00,0.0698
582.00,0.0708
581.00,0.0714
580.00,0.0720
579.00,0.0722
578.00,0.0721
577.00,0.0716
576.00,0.0711
575.00,0.0703
574.00,0.0693
573.00,0.0682
572.00,0.0670
571.00,0.0653
570.00,0.0633
569.00,0.0612
568.00,0.0595
567.00,0.0582
566.00,0.0569
565.00,0.0558
564.00,0.0549
563.00,0.0537
562.00,0.0521
561.00,0.0505
560.00,0.0495
559.00,0.0489
558.00,0.0480
557.00,0.0468
556.00,0.0455
555.00,0.0444
554.00,0.0436
553.00,0.0431
552.00,0.0428
551.00,0.0427
550.00,0.0423
549.00,0.0420
548.00,0.0417
547.00,0.0412
546.00,0.0406
545.00,0.0401
544.00,0.0399
543.00,0.0397
542.00,0.0393
541.00,0.0389
540.00,0.0386
539.00,0.0384
538.00,0.0380
537.00,0.0374
536.00,0.0371
535.00,0.0369
534.00,0.0366
533.00,0.0360
532.00,0.0355
531.00,0.0350
530.00,0.0343
529.00,0.0337
528.00,0.0333
527.00,0.0331
526.00,0.0328
525.00,0.0327
524.00,0.0328
523.00,0.0331
522.00,0.0330
521.00,0.0328
520.00,0.0324
519.00,0.0319
518.00,0.0313
517.00,0.0308
516.00,0.0305
515.00,0.0297
514.00,0.0284
513.00,0.0269
512.00,0.0258
511.00,0.0250
510.00,0.0242
509.00,0.0237
508.00,0.0236
507.00,0.0236
506.00,0.0235
505.00,0.0233
504.00,0.0231
503.00,0.0226
502.00,0.0220
501.00,0.0215
500.00,0.0213
499.00,0.0210
498.00,0.0207
497.00,0.0206
496.00,0.0210
495.00,0.0213
494.00,0.0211
493.00,0.0206
492.00,0.0202
491.00,0.0200
490.00,0.0196
489.00,0.0195
488.00,0.0198
487.00,0.0200
486.00,0.0195
485.00,0.0190
484.00,0.0190
483.00,0.0195
482.00,0.0198
481.00,0.0195
480.00,0.0188
479.00,0.0178
478.00,0.0164
477.00,0.0155
476.00,0.0153
475.00,0.0153
474.00,0.0147
473.00,0.0141
472.00,0.0142
471.00,0.0145
470.00,0.0144
469.00,0.0138
468.00,0.0133
467.00,0.0126
466.00,0.0118
465.00,0.0113
464.00,0.0117
463.00,0.0125
462.00,0.0129
461.00,0.0126
460.00,0.0122
459.00,0.0117
458.00,0.0109
457.00,0.0103
456.00,0.0101
455.00,0.0096
454.00,0.0085
453.00,0.0072
452.00,0.0065
451.00,0.0061
450.00,0.0057
