Created as New Dataset,Sample 008 By Administrator Date Monday, June 09 2025
cm-1,A
4000.00,0.0061
3999.00,0.0061
3998.00,0.0061
3997.00,0.0061
3996.00,0.0061
3995.00,0.0062
3994.00,0.0061
3993.00,0.0061
3992.00,0.0061
3991.00,0.0061
3990.00,0.0061
3989.00,0.0061
3988.00,0.0061
3987.00,0.0062
3986.00,0.0062
3985.00,0.0061
3984.00,0.0061
3983.00,0.0061
3982.00,0.0061
3981.00,0.0062
3980.00,0.0062
3979.00,0.0062
3978.00,0.0062
3977.00,0.0062
3976.00,0.0062
3975.00,0.0062
3974.00,0.0061
3973.00,0.0061
3972.00,0.0061
3971.00,0.0061
3970.00,0.0061
3969.00,0.0061
3968.00,0.0061
3967.00,0.0061
3966.00,0.0061
3965.00,0.0062
3964.00,0.0062
3963.00,0.0062
3962.00,0.0062
3961.00,0.0063
3960.00,0.0063
3959.00,0.0063
3958.00,0.0063
3957.00,0.0063
3956.00,0.0063
3955.00,0.0063
3954.00,0.0063
3953.00,0.0063
3952.00,0.0064
3951.00,0.0064
3950.00,0.0064
3949.00,0.0064
3948.00,0.0064
3947.00,0.0064
3946.00,0.0065
3945.00,0.0065
3944.00,0.0065
3943.00,0.0064
3942.00,0.0063
3941.00,0.0063
3940.00,0.0063
3939.00,0.0063
3938.00,0.0063
3937.00,0.0063
3936.00,0.0064
3935.00,0.0065
3934.00,0.0066
3933.00,0.0066
3932.00,0.0065
3931.00,0.0064
3930.00,0.0064
3929.00,0.0063
3928.00,0.0064
3927.00,0.0064
3926.00,0.0064
3925.00,0.0063
3924.00,0.0063
3923.00,0.0063
3922.00,0.0064
3921.00,0.0065
3920.00,0.0066
3919.00,0.0066
3918.00,0.0066
3917.00,0.0065
3916.00,0.0064
3915.00,0.0064
3914.00,0.0063
3913.00,0.0063
3912.00,0.0062
3911.00,0.0062
3910.00,0.0062
3909.00,0.0062
3908.00,0.0063
3907.00,0.0064
3906.00,0.0066
3905.00,0.0068
3904.00,0.0070
3903.00,0.0072
3902.00,0.0074
3901.00,0.0074
3900.00,0.0073
3899.00,0.0071
3898.00,0.0069
3897.00,0.0068
3896.00,0.0067
3895.00,0.0067
3894.00,0.0067
3893.00,0.0066
3892.00,0.0065
3891.00,0.0064
3890.00,0.0064
3889.00,0.0065
3888.00,0.0067
3887.00,0.0069
3886.00,0.0069
3885.00,0.0069
3884.00,0.0069
3883.00,0.0070
3882.00,0.0071
3881.00,0.0070
3880.00,0.0069
3879.00,0.0067
3878.00,0.0067
3877.00,0.0069
3876.00,0.0070
3875.00,0.0070
3874.00,0.0069
3873.00,0.0068
3872.00,0.0069
3871.00,0.0071
3870.00,0.0071
3869.00,0.0071
3868.00,0.0071
3867.00,0.0072
3866.00,0.0073
3865.00,0.0074
3864.00,0.0072
3863.00,0.0071
3862.00,0.0070
3861.00,0.0070
3860.00,0.0069
3859.00,0.0068
3858.00,0.0066
3857.00,0.0063
3856.00,0.0062
3855.00,0.0063
3854.00,0.0065
3853.00,0.0067
3852.00,0.0068
3851.00,0.0069
3850.00,0.0070
3849.00,0.0070
3848.00,0.0070
3847.00,0.0069
3846.00,0.0069
3845.00,0.0069
3844.00,0.0069
3843.00,0.0070
3842.00,0.0071
3841.00,0.0072
3840.00,0.0072
3839.00,0.0073
3838.00,0.0073
3837.00,0.0073
3836.00,0.0074
3835.00,0.0073
3834.00,0.0073
3833.00,0.0073
3832.00,0.0072
3831.00,0.0070
3830.00,0.0069
3829.00,0.0068
3828.00,0.0068
3827.00,0.0067
3826.00,0.0066
3825.00,0.0066
3824.00,0.0068
3823.00,0.0071
3822.00,0.0074
3821.00,0.0074
3820.00,0.0073
3819.00,0.0072
3818.00,0.0072
3817.00,0.0072
3816.00,0.0071
3815.00,0.0069
3814.00,0.0067
3813.00,0.0065
3812.00,0.0065
3811.00,0.0064
3810.00,0.0063
3809.00,0.0063
3808.00,0.0064
3807.00,0.0065
3806.00,0.0066
3805.00,0.0067
3804.00,0.0069
3803.00,0.0071
3802.00,0.0072
3801.00,0.0072
3800.00,0.0072
3799.00,0.0072
3798.00,0.0072
3797.00,0.0071
3796.00,0.0068
3795.00,0.0066
3794.00,0.0064
3793.00,0.0063
3792.00,0.0062
3791.00,0.0061
3790.00,0.0060
3789.00,0.0060
3788.00,0.0060
3787.00,0.0060
3786.00,0.0061
3785.00,0.0061
3784.00,0.0062
3783.00,0.0063
3782.00,0.0065
3781.00,0.0066
3780.00,0.0066
3779.00,0.0065
3778.00,0.0063
3777.00,0.0063
3776.00,0.0063
3775.00,0.0063
3774.00,0.0063
3773.00,0.0064
3772.00,0.0065
3771.00,0.0066
3770.00,0.0067
3769.00,0.0068
3768.00,0.0069
3767.00,0.0070
3766.00,0.0070
3765.00,0.0070
3764.00,0.0069
3763.00,0.0069
3762.00,0.0070
3761.00,0.0072
3760.00,0.0072
3759.00,0.0072
3758.00,0.0072
3757.00,0.0074
3756.00,0.0075
3755.00,0.0076
3754.00,0.0078
3753.00,0.0080
3752.00,0.0081
3751.00,0.0081
3750.00,0.0083
3749.00,0.0084
3748.00,0.0085
3747.00,0.0086
3746.00,0.0086
3745.00,0.0087
3744.00,0.0086
3743.00,0.0085
3742.00,0.0085
3741.00,0.0085
3740.00,0.0085
3739.00,0.0086
3738.00,0.0088
3737.00,0.0090
3736.00,0.0089
3735.00,0.0088
3734.00,0.0087
3733.00,0.0087
3732.00,0.0086
3731.00,0.0085
3730.00,0.0084
3729.00,0.0083
3728.00,0.0083
3727.00,0.0083
3726.00,0.0083
3725.00,0.0082
3724.00,0.0082
3723.00,0.0082
3722.00,0.0082
3721.00,0.0081
3720.00,0.0080
3719.00,0.0080
3718.00,0.0079
3717.00,0.0079
3716.00,0.0079
3715.00,0.0080
3714.00,0.0083
3713.00,0.0086
3712.00,0.0088
3711.00,0.0090
3710.00,0.0091
3709.00,0.0092
3708.00,0.0092
3707.00,0.0091
3706.00,0.0090
3705.00,0.0090
3704.00,0.0090
3703.00,0.0090
3702.00,0.0090
3701.00,0.0089
3700.00,0.0090
3699.00,0.0091
3698.00,0.0092
3697.00,0.0093
3696.00,0.0093
3695.00,0.0094
3694.00,0.0096
3693.00,0.0098
3692.00,0.0101
3691.00,0.0103
3690.00,0.0105
3689.00,0.0108
3688.00,0.0111
3687.00,0.0113
3686.00,0.0114
3685.00,0.0115
3684.00,0.0116
3683.00,0.0117
3682.00,0.0118
3681.00,0.0120
3680.00,0.0121
3679.00,0.0123
3678.00,0.0127
3677.00,0.0132
3676.00,0.0138
3675.00,0.0142
3674.00,0.0147
3673.00,0.0152
3672.00,0.0157
3671.00,0.0161
3670.00,0.0162
3669.00,0.0162
3668.00,0.0163
3667.00,0.0165
3666.00,0.0167
3665.00,0.0168
3664.00,0.0170
3663.00,0.0173
3662.00,0.0175
3661.00,0.0179
3660.00,0.0182
3659.00,0.0186
3658.00,0.0192
3657.00,0.0198
3656.00,0.0205
3655.00,0.0212
3654.00,0.0218
3653.00,0.0225
3652.00,0.0233
3651.00,0.0241
3650.00,0.0249
3649.00,0.0258
3648.00,0.0266
3647.00,0.0273
3646.00,0.0278
3645.00,0.0281
3644.00,0.0284
3643.00,0.0287
3642.00,0.0290
3641.00,0.0294
3640.00,0.0298
3639.00,0.0304
3638.00,0.0310
3637.00,0.0316
3636.00,0.0322
3635.00,0.0329
3634.00,0.0336
3633.00,0.0343
3632.00,0.0350
3631.00,0.0358
3630.00,0.0369
3629.00,0.0380
3628.00,0.0391
3627.00,0.0401
3626.00,0.0409
3625.00,0.0415
3624.00,0.0420
3623.00,0.0424
3622.00,0.0429
3621.00,0.0435
3620.00,0.0443
3619.00,0.0452
3618.00,0.0462
3617.00,0.0472
3616.00,0.0481
3615.00,0.0489
3614.00,0.0496
3613.00,0.0502
3612.00,0.0509
3611.00,0.0518
3610.00,0.0527
3609.00,0.0535
3608.00,0.0542
3607.00,0.0549
3606.00,0.0555
3605.00,0.0562
3604.00,0.0568
3603.00,0.0574
3602.00,0.0580
3601.00,0.0586
3600.00,0.0593
3599.00,0.0601
3598.00,0.0609
3597.00,0.0617
3596.00,0.0626
3595.00,0.0634
3594.00,0.0641
3593.00,0.0649
3592.00,0.0656
3591.00,0.0663
3590.00,0.0670
3589.00,0.0678
3588.00,0.0687
3587.00,0.0696
3586.00,0.0707
3585.00,0.0716
3584.00,0.0724
3583.00,0.0730
3582.00,0.0735
3581.00,0.0739
3580.00,0.0744
3579.00,0.0750
3578.00,0.0756
3577.00,0.0763
3576.00,0.0771
3575.00,0.0779
3574.00,0.0787
3573.00,0.0795
3572.00,0.0803
3571.00,0.0810
3570.00,0.0818
3569.00,0.0826
3568.00,0.0835
3567.00,0.0845
3566.00,0.0856
3565.00,0.0867
3564.00,0.0876
3563.00,0.0884
3562.00,0.0890
3561.00,0.0895
3560.00,0.0900
3559.00,0.0905
3558.00,0.0911
3557.00,0.0918
3556.00,0.0925
3555.00,0.0931
3554.00,0.0939
3553.00,0.0947
3552.00,0.0955
3551.00,0.0963
3550.00,0.0972
3549.00,0.0980
3548.00,0.0987
3547.00,0.0995
3546.00,0.1002
3545.00,0.1011
3544.00,0.1019
3543.00,0.1027
3542.00,0.1035
3541.00,0.1041
3540.00,0.1047
3539.00,0.1053
3538.00,0.1058
3537.00,0.1065
3536.00,0.1071
3535.00,0.1078
3534.00,0.1086
3533.00,0.1093
3532.00,0.1099
3531.00,0.1105
3530.00,0.1111
3529.00,0.1119
3528.00,0.1127
3527.00,0.1135
3526.00,0.1144
3525.00,0.1152
3524.00,0.1160
3523.00,0.1166
3522.00,0.1173
3521.00,0.1179
3520.00,0.1186
3519.00,0.1192
3518.00,0.1198
3517.00,0.1204
3516.00,0.1210
3515.00,0.1217
3514.00,0.1224
3513.00,0.1231
3512.00,0.1238
3511.00,0.1244
3510.00,0.1251
3509.00,0.1258
3508.00,0.1266
3507.00,0.1274
3506.00,0.1281
3505.00,0.1288
3504.00,0.1295
3503.00,0.1301
3502.00,0.1308
3501.00,0.1315
3500.00,0.1322
3499.00,0.1329
3498.00,0.1335
3497.00,0.1341
3496.00,0.1347
3495.00,0.1353
3494.00,0.1360
3493.00,0.1366
3492.00,0.1372
3491.00,0.1379
3490.00,0.1385
3489.00,0.1392
3488.00,0.1399
3487.00,0.1406
3486.00,0.1413
3485.00,0.1420
3484.00,0.1426
3483.00,0.1432
3482.00,0.1439
3481.00,0.1446
3480.00,0.1453
3479.00,0.1460
3478.00,0.1466
3477.00,0.1472
3476.00,0.1478
3475.00,0.1484
3474.00,0.1491
3473.00,0.1498
3472.00,0.1505
3471.00,0.1512
3470.00,0.1519
3469.00,0.1526
3468.00,0.1532
3467.00,0.1538
3466.00,0.1544
3465.00,0.1549
3464.00,0.1555
3463.00,0.1561
3462.00,0.1568
3461.00,0.1575
3460.00,0.1581
3459.00,0.1587
3458.00,0.1593
3457.00,0.1599
3456.00,0.1605
3455.00,0.1611
3454.00,0.1616
3453.00,0.1622
3452.00,0.1627
3451.00,0.1633
3450.00,0.1639
3449.00,0.1645
3448.00,0.1651
3447.00,0.1659
3446.00,0.1666
3445.00,0.1673
3444.00,0.1679
3443.00,0.1684
3442.00,0.1689
3441.00,0.1695
3440.00,0.1701
3439.00,0.1708
3438.00,0.1714
3437.00,0.1720
3436.00,0.1726
3435.00,0.1731
3434.00,0.1736
3433.00,0.1740
3432.00,0.1745
3431.00,0.1751
3430.00,0.1756
3429.00,0.1762
3428.00,0.1767
3427.00,0.1772
3426.00,0.1777
3425.00,0.1782
3424.00,0.1787
3423.00,0.1792
3422.00,0.1797
3421.00,0.1802
3420.00,0.1808
3419.00,0.1814
3418.00,0.1819
3417.00,0.1824
3416.00,0.1829
3415.00,0.1834
3414.00,0.1839
3413.00,0.1844
3412.00,0.1849
3411.00,0.1854
3410.00,0.1858
3409.00,0.1861
3408.00,0.1865
3407.00,0.1869
3406.00,0.1873
3405.00,0.1877
3404.00,0.1882
3403.00,0.1887
3402.00,0.1891
3401.00,0.1895
3400.00,0.1898
3399.00,0.1900
3398.00,0.1903
3397.00,0.1905
3396.00,0.1908
3395.00,0.1911
3394.00,0.1914
3393.00,0.1918
3392.00,0.1921
3391.00,0.1924
3390.00,0.1926
3389.00,0.1927
3388.00,0.1929
3387.00,0.1930
3386.00,0.1932
3385.00,0.1934
3384.00,0.1937
3383.00,0.1939
3382.00,0.1942
3381.00,0.1944
3380.00,0.1946
3379.00,0.1947
3378.00,0.1948
3377.00,0.1949
3376.00,0.1951
3375.00,0.1952
3374.00,0.1953
3373.00,0.1955
3372.00,0.1956
3371.00,0.1958
3370.00,0.1959
3369.00,0.1959
3368.00,0.1960
3367.00,0.1960
3366.00,0.1960
3365.00,0.1961
3364.00,0.1962
3363.00,0.1963
3362.00,0.1964
3361.00,0.1964
3360.00,0.1964
3359.00,0.1963
3358.00,0.1962
3357.00,0.1962
3356.00,0.1962
3355.00,0.1963
3354.00,0.1963
3353.00,0.1964
3352.00,0.1963
3351.00,0.1962
3350.00,0.1961
3349.00,0.1960
3348.00,0.1959
3347.00,0.1959
3346.00,0.1959
3345.00,0.1959
3344.00,0.1959
3343.00,0.1958
3342.00,0.1958
3341.00,0.1957
3340.00,0.1956
3339.00,0.1955
3338.00,0.1953
3337.00,0.1952
3336.00,0.1951
3335.00,0.1950
3334.00,0.1948
3333.00,0.1948
3332.00,0.1947
3331.00,0.1946
3330.00,0.1944
3329.00,0.1943
3328.00,0.1942
3327.00,0.1941
3326.00,0.1941
3325.00,0.1940
3324.00,0.1939
3323.00,0.1938
3322.00,0.1937
3321.00,0.1936
3320.00,0.1934
3319.00,0.1933
3318.00,0.1931
3317.00,0.1930
3316.00,0.1929
3315.00,0.1927
3314.00,0.1926
3313.00,0.1925
3312.00,0.1925
3311.00,0.1924
3310.00,0.1923
3309.00,0.1922
3308.00,0.1920
3307.00,0.1918
3306.00,0.1917
3305.00,0.1916
3304.00,0.1916
3303.00,0.1914
3302.00,0.1913
3301.00,0.1911
3300.00,0.1910
3299.00,0.1908
3298.00,0.1907
3297.00,0.1905
3296.00,0.1904
3295.00,0.1902
3294.00,0.1900
3293.00,0.1899
3292.00,0.1897
3291.00,0.1896
3290.00,0.1894
3289.00,0.1893
3288.00,0.1891
3287.00,0.1889
3286.00,0.1887
3285.00,0.1884
3284.00,0.1881
3283.00,0.1879
3282.00,0.1876
3281.00,0.1873
3280.00,0.1871
3279.00,0.1869
3278.00,0.1867
3277.00,0.1864
3276.00,0.1862
3275.00,0.1859
3274.00,0.1856
3273.00,0.1852
3272.00,0.1849
3271.00,0.1845
3270.00,0.1842
3269.00,0.1839
3268.00,0.1836
3267.00,0.1833
3266.00,0.1829
3265.00,0.1825
3264.00,0.1820
3263.00,0.1816
3262.00,0.1812
3261.00,0.1808
3260.00,0.1804
3259.00,0.1799
3258.00,0.1795
3257.00,0.1790
3256.00,0.1785
3255.00,0.1781
3254.00,0.1776
3253.00,0.1771
3252.00,0.1766
3251.00,0.1762
3250.00,0.1757
3249.00,0.1752
3248.00,0.1748
3247.00,0.1743
3246.00,0.1739
3245.00,0.1734
3244.00,0.1729
3243.00,0.1723
3242.00,0.1718
3241.00,0.1713
3240.00,0.1708
3239.00,0.1703
3238.00,0.1698
3237.00,0.1693
3236.00,0.1688
3235.00,0.1683
3234.00,0.1678
3233.00,0.1672
3232.00,0.1667
3231.00,0.1661
3230.00,0.1656
3229.00,0.1651
3228.00,0.1646
3227.00,0.1640
3226.00,0.1635
3225.00,0.1630
3224.00,0.1624
3223.00,0.1618
3222.00,0.1612
3221.00,0.1605
3220.00,0.1599
3219.00,0.1593
3218.00,0.1587
3217.00,0.1582
3216.00,0.1576
3215.00,0.1570
3214.00,0.1564
3213.00,0.1559
3212.00,0.1552
3211.00,0.1546
3210.00,0.1540
3209.00,0.1533
3208.00,0.1527
3207.00,0.1521
3206.00,0.1514
3205.00,0.1507
3204.00,0.1500
3203.00,0.1494
3202.00,0.1487
3201.00,0.1480
3200.00,0.1473
3199.00,0.1467
3198.00,0.1460
3197.00,0.1453
3196.00,0.1446
3195.00,0.1439
3194.00,0.1433
3193.00,0.1426
3192.00,0.1419
3191.00,0.1412
3190.00,0.1405
3189.00,0.1398
3188.00,0.1391
3187.00,0.1384
3186.00,0.1377
3185.00,0.1370
3184.00,0.1363
3183.00,0.1356
3182.00,0.1348
3181.00,0.1341
3180.00,0.1333
3179.00,0.1326
3178.00,0.1319
3177.00,0.1312
3176.00,0.1305
3175.00,0.1297
3174.00,0.1289
3173.00,0.1281
3172.00,0.1274
3171.00,0.1266
3170.00,0.1259
3169.00,0.1251
3168.00,0.1244
3167.00,0.1236
3166.00,0.1229
3165.00,0.1222
3164.00,0.1214
3163.00,0.1207
3162.00,0.1199
3161.00,0.1192
3160.00,0.1184
3159.00,0.1177
3158.00,0.1170
3157.00,0.1163
3156.00,0.1156
3155.00,0.1150
3154.00,0.1143
3153.00,0.1136
3152.00,0.1129
3151.00,0.1121
3150.00,0.1114
3149.00,0.1106
3148.00,0.1099
3147.00,0.1093
3146.00,0.1086
3145.00,0.1080
3144.00,0.1073
3143.00,0.1066
3142.00,0.1059
3141.00,0.1052
3140.00,0.1046
3139.00,0.1040
3138.00,0.1033
3137.00,0.1027
3136.00,0.1020
3135.00,0.1013
3134.00,0.1007
3133.00,0.1001
3132.00,0.0994
3131.00,0.0988
3130.00,0.0982
3129.00,0.0977
3128.00,0.0971
3127.00,0.0965
3126.00,0.0959
3125.00,0.0953
3124.00,0.0947
3123.00,0.0941
3122.00,0.0936
3121.00,0.0930
3120.00,0.0925
3119.00,0.0919
3118.00,0.0914
3117.00,0.0908
3116.00,0.0903
3115.00,0.0898
3114.00,0.0893
3113.00,0.0888
3112.00,0.0883
3111.00,0.0878
3110.00,0.0873
3109.00,0.0868
3108.00,0.0863
3107.00,0.0859
3106.00,0.0854
3105.00,0.0850
3104.00,0.0846
3103.00,0.0841
3102.00,0.0836
3101.00,0.0831
3100.00,0.0827
3099.00,0.0824
3098.00,0.0820
3097.00,0.0816
3096.00,0.0812
3095.00,0.0807
3094.00,0.0803
3093.00,0.0799
3092.00,0.0794
3091.00,0.0790
3090.00,0.0786
3089.00,0.0782
3088.00,0.0778
3087.00,0.0774
3086.00,0.0770
3085.00,0.0766
3084.00,0.0763
3083.00,0.0759
3082.00,0.0755
3081.00,0.0751
3080.00,0.0748
3079.00,0.0745
3078.00,0.0742
3077.00,0.0738
3076.00,0.0735
3075.00,0.0731
3074.00,0.0727
3073.00,0.0723
3072.00,0.0719
3071.00,0.0715
3070.00,0.0712
3069.00,0.0707
3068.00,0.0703
3067.00,0.0699
3066.00,0.0696
3065.00,0.0692
3064.00,0.0689
3063.00,0.0685
3062.00,0.0681
3061.00,0.0677
3060.00,0.0673
3059.00,0.0668
3058.00,0.0664
3057.00,0.0660
3056.00,0.0656
3055.00,0.0652
3054.00,0.0648
3053.00,0.0644
3052.00,0.0640
3051.00,0.0637
3050.00,0.0633
3049.00,0.0628
3048.00,0.0624
3047.00,0.0619
3046.00,0.0615
3045.00,0.0611
3044.00,0.0607
3043.00,0.0603
3042.00,0.0600
3041.00,0.0596
3040.00,0.0592
3039.00,0.0588
3038.00,0.0585
3037.00,0.0581
3036.00,0.0577
3035.00,0.0574
3034.00,0.0571
3033.00,0.0568
3032.00,0.0565
3031.00,0.0561
3030.00,0.0558
3029.00,0.0555
3028.00,0.0552
3027.00,0.0548
3026.00,0.0545
3025.00,0.0542
3024.00,0.0539
3023.00,0.0536
3022.00,0.0533
3021.00,0.0530
3020.00,0.0527
3019.00,0.0525
3018.00,0.0522
3017.00,0.0520
3016.00,0.0518
3015.00,0.0516
3014.00,0.0513
3013.00,0.0511
3012.00,0.0509
3011.00,0.0507
3010.00,0.0505
3009.00,0.0502
3008.00,0.0499
3007.00,0.0497
3006.00,0.0494
3005.00,0.0492
3004.00,0.0490
3003.00,0.0489
3002.00,0.0487
3001.00,0.0486
3000.00,0.0484
2999.00,0.0483
2998.00,0.0482
2997.00,0.0481
2996.00,0.0480
2995.00,0.0479
2994.00,0.0478
2993.00,0.0478
2992.00,0.0478
2991.00,0.0478
2990.00,0.0479
2989.00,0.0479
2988.00,0.0480
2987.00,0.0481
2986.00,0.0482
2985.00,0.0483
2984.00,0.0484
2983.00,0.0485
2982.00,0.0486
2981.00,0.0487
2980.00,0.0489
2979.00,0.0490
2978.00,0.0492
2977.00,0.0494
2976.00,0.0496
2975.00,0.0498
2974.00,0.0500
2973.00,0.0502
2972.00,0.0504
2971.00,0.0506
2970.00,0.0508
2969.00,0.0510
2968.00,0.0511
2967.00,0.0512
2966.00,0.0514
2965.00,0.0515
2964.00,0.0516
2963.00,0.0517
2962.00,0.0518
2961.00,0.0518
2960.00,0.0518
2959.00,0.0518
2958.00,0.0517
2957.00,0.0516
2956.00,0.0515
2955.00,0.0514
2954.00,0.0512
2953.00,0.0510
2952.00,0.0509
2951.00,0.0507
2950.00,0.0506
2949.00,0.0505
2948.00,0.0505
2947.00,0.0504
2946.00,0.0504
2945.00,0.0504
2944.00,0.0505
2943.00,0.0506
2942.00,0.0507
2941.00,0.0507
2940.00,0.0508
2939.00,0.0509
2938.00,0.0510
2937.00,0.0511
2936.00,0.0512
2935.00,0.0512
2934.00,0.0513
2933.00,0.0513
2932.00,0.0513
2931.00,0.0512
2930.00,0.0512
2929.00,0.0512
2928.00,0.0511
2927.00,0.0511
2926.00,0.0510
2925.00,0.0509
2924.00,0.0508
2923.00,0.0506
2922.00,0.0504
2921.00,0.0501
2920.00,0.0497
2919.00,0.0494
2918.00,0.0490
2917.00,0.0485
2916.00,0.0480
2915.00,0.0475
2914.00,0.0470
2913.00,0.0465
2912.00,0.0461
2911.00,0.0456
2910.00,0.0452
2909.00,0.0449
2908.00,0.0445
2907.00,0.0442
2906.00,0.0439
2905.00,0.0436
2904.00,0.0433
2903.00,0.0431
2902.00,0.0428
2901.00,0.0426
2900.00,0.0423
2899.00,0.0420
2898.00,0.0417
2897.00,0.0414
2896.00,0.0411
2895.00,0.0408
2894.00,0.0405
2893.00,0.0402
2892.00,0.0400
2891.00,0.0397
2890.00,0.0395
2889.00,0.0393
2888.00,0.0391
2887.00,0.0389
2886.00,0.0387
2885.00,0.0385
2884.00,0.0383
2883.00,0.0381
2882.00,0.0379
2881.00,0.0378
2880.00,0.0376
2879.00,0.0375
2878.00,0.0373
2877.00,0.0372
2876.00,0.0370
2875.00,0.0368
2874.00,0.0366
2873.00,0.0364
2872.00,0.0361
2871.00,0.0359
2870.00,0.0356
2869.00,0.0353
2868.00,0.0350
2867.00,0.0347
2866.00,0.0344
2865.00,0.0341
2864.00,0.0339
2863.00,0.0337
2862.00,0.0336
2861.00,0.0335
2860.00,0.0334
2859.00,0.0334
2858.00,0.0333
2857.00,0.0333
2856.00,0.0333
2855.00,0.0332
2854.00,0.0332
2853.00,0.0331
2852.00,0.0329
2851.00,0.0327
2850.00,0.0324
2849.00,0.0319
2848.00,0.0315
2847.00,0.0310
2846.00,0.0304
2845.00,0.0300
2844.00,0.0295
2843.00,0.0291
2842.00,0.0287
2841.00,0.0283
2840.00,0.0280
2839.00,0.0277
2838.00,0.0275
2837.00,0.0273
2836.00,0.0271
2835.00,0.0269
2834.00,0.0268
2833.00,0.0266
2832.00,0.0264
2831.00,0.0263
2830.00,0.0261
2829.00,0.0259
2828.00,0.0258
2827.00,0.0257
2826.00,0.0256
2825.00,0.0254
2824.00,0.0253
2823.00,0.0252
2822.00,0.0250
2821.00,0.0249
2820.00,0.0247
2819.00,0.0245
2818.00,0.0244
2817.00,0.0243
2816.00,0.0242
2815.00,0.0241
2814.00,0.0240
2813.00,0.0238
2812.00,0.0237
2811.00,0.0235
2810.00,0.0234
2809.00,0.0233
2808.00,0.0232
2807.00,0.0231
2806.00,0.0229
2805.00,0.0228
2804.00,0.0227
2803.00,0.0226
2802.00,0.0225
2801.00,0.0224
2800.00,0.0223
2799.00,0.0221
2798.00,0.0220
2797.00,0.0219
2796.00,0.0219
2795.00,0.0218
2794.00,0.0217
2793.00,0.0216
2792.00,0.0214
2791.00,0.0213
2790.00,0.0212
2789.00,0.0212
2788.00,0.0211
2787.00,0.0211
2786.00,0.0210
2785.00,0.0209
2784.00,0.0208
2783.00,0.0207
2782.00,0.0206
2781.00,0.0206
2780.00,0.0205
2779.00,0.0204
2778.00,0.0203
2777.00,0.0201
2776.00,0.0200
2775.00,0.0200
2774.00,0.0199
2773.00,0.0198
2772.00,0.0197
2771.00,0.0197
2770.00,0.0196
2769.00,0.0195
2768.00,0.0195
2767.00,0.0194
2766.00,0.0194
2765.00,0.0193
2764.00,0.0192
2763.00,0.0192
2762.00,0.0191
2761.00,0.0190
2760.00,0.0189
2759.00,0.0189
2758.00,0.0188
2757.00,0.0188
2756.00,0.0187
2755.00,0.0187
2754.00,0.0186
2753.00,0.0185
2752.00,0.0185
2751.00,0.0184
2750.00,0.0183
2749.00,0.0183
2748.00,0.0182
2747.00,0.0182
2746.00,0.0181
2745.00,0.0181
2744.00,0.0180
2743.00,0.0180
2742.00,0.0179
2741.00,0.0178
2740.00,0.0178
2739.00,0.0177
2738.00,0.0177
2737.00,0.0176
2736.00,0.0176
2735.00,0.0175
2734.00,0.0174
2733.00,0.0174
2732.00,0.0173
2731.00,0.0173
2730.00,0.0172
2729.00,0.0171
2728.00,0.0171
2727.00,0.0170
2726.00,0.0169
2725.00,0.0169
2724.00,0.0168
2723.00,0.0167
2722.00,0.0167
2721.00,0.0166
2720.00,0.0166
2719.00,0.0166
2718.00,0.0166
2717.00,0.0165
2716.00,0.0164
2715.00,0.0164
2714.00,0.0163
2713.00,0.0162
2712.00,0.0162
2711.00,0.0161
2710.00,0.0161
2709.00,0.0160
2708.00,0.0160
2707.00,0.0160
2706.00,0.0159
2705.00,0.0159
2704.00,0.0159
2703.00,0.0158
2702.00,0.0157
2701.00,0.0157
2700.00,0.0156
2699.00,0.0156
2698.00,0.0156
2697.00,0.0156
2696.00,0.0155
2695.00,0.0155
2694.00,0.0154
2693.00,0.0154
2692.00,0.0153
2691.00,0.0153
2690.00,0.0153
2689.00,0.0152
2688.00,0.0152
2687.00,0.0152
2686.00,0.0151
2685.00,0.0151
2684.00,0.0151
2683.00,0.0150
2682.00,0.0150
2681.00,0.0150
2680.00,0.0149
2679.00,0.0149
2678.00,0.0149
2677.00,0.0148
2676.00,0.0148
2675.00,0.0147
2674.00,0.0147
2673.00,0.0146
2672.00,0.0146
2671.00,0.0145
2670.00,0.0145
2669.00,0.0145
2668.00,0.0145
2667.00,0.0145
2666.00,0.0144
2665.00,0.0144
2664.00,0.0144
2663.00,0.0144
2662.00,0.0145
2661.00,0.0145
2660.00,0.0145
2659.00,0.0144
2658.00,0.0144
2657.00,0.0144
2656.00,0.0144
2655.00,0.0143
2654.00,0.0142
2653.00,0.0142
2652.00,0.0141
2651.00,0.0141
2650.00,0.0141
2649.00,0.0140
2648.00,0.0140
2647.00,0.0140
2646.00,0.0139
2645.00,0.0139
2644.00,0.0139
2643.00,0.0138
2642.00,0.0137
2641.00,0.0137
2640.00,0.0136
2639.00,0.0135
2638.00,0.0134
2637.00,0.0134
2636.00,0.0133
2635.00,0.0133
2634.00,0.0132
2633.00,0.0132
2632.00,0.0131
2631.00,0.0130
2630.00,0.0130
2629.00,0.0130
2628.00,0.0130
2627.00,0.0129
2626.00,0.0128
2625.00,0.0128
2624.00,0.0127
2623.00,0.0127
2622.00,0.0126
2621.00,0.0126
2620.00,0.0125
2619.00,0.0125
2618.00,0.0125
2617.00,0.0125
2616.00,0.0124
2615.00,0.0124
2614.00,0.0124
2613.00,0.0123
2612.00,0.0123
2611.00,0.0123
2610.00,0.0122
2609.00,0.0121
2608.00,0.0121
2607.00,0.0120
2606.00,0.0120
2605.00,0.0120
2604.00,0.0120
2603.00,0.0119
2602.00,0.0119
2601.00,0.0118
2600.00,0.0118
2599.00,0.0117
2598.00,0.0117
2597.00,0.0117
2596.00,0.0117
2595.00,0.0116
2594.00,0.0116
2593.00,0.0115
2592.00,0.0115
2591.00,0.0114
2590.00,0.0114
2589.00,0.0114
2588.00,0.0113
2587.00,0.0113
2586.00,0.0112
2585.00,0.0112
2584.00,0.0112
2583.00,0.0113
2582.00,0.0113
2581.00,0.0113
2580.00,0.0113
2579.00,0.0113
2578.00,0.0112
2577.00,0.0112
2576.00,0.0112
2575.00,0.0111
2574.00,0.0110
2573.00,0.0109
2572.00,0.0109
2571.00,0.0109
2570.00,0.0109
2569.00,0.0108
2568.00,0.0108
2567.00,0.0107
2566.00,0.0107
2565.00,0.0106
2564.00,0.0106
2563.00,0.0106
2562.00,0.0106
2561.00,0.0106
2560.00,0.0106
2559.00,0.0106
2558.00,0.0106
2557.00,0.0106
2556.00,0.0105
2555.00,0.0104
2554.00,0.0104
2553.00,0.0104
2552.00,0.0104
2551.00,0.0104
2550.00,0.0103
2549.00,0.0103
2548.00,0.0103
2547.00,0.0103
2546.00,0.0102
2545.00,0.0102
2544.00,0.0102
2543.00,0.0102
2542.00,0.0102
2541.00,0.0102
2540.00,0.0102
2539.00,0.0102
2538.00,0.0102
2537.00,0.0101
2536.00,0.0101
2535.00,0.0101
2534.00,0.0101
2533.00,0.0101
2532.00,0.0102
2531.00,0.0102
2530.00,0.0102
2529.00,0.0102
2528.00,0.0101
2527.00,0.0101
2526.00,0.0101
2525.00,0.0101
2524.00,0.0101
2523.00,0.0101
2522.00,0.0101
2521.00,0.0101
2520.00,0.0101
2519.00,0.0101
2518.00,0.0101
2517.00,0.0100
2516.00,0.0100
2515.00,0.0100
2514.00,0.0100
2513.00,0.0100
2512.00,0.0100
2511.00,0.0100
2510.00,0.0099
2509.00,0.0098
2508.00,0.0098
2507.00,0.0098
2506.00,0.0098
2505.00,0.0098
2504.00,0.0098
2503.00,0.0098
2502.00,0.0098
2501.00,0.0098
2500.00,0.0098
2499.00,0.0097
2498.00,0.0098
2497.00,0.0098
2496.00,0.0098
2495.00,0.0098
2494.00,0.0098
2493.00,0.0097
2492.00,0.0097
2491.00,0.0098
2490.00,0.0098
2489.00,0.0099
2488.00,0.0098
2487.00,0.0098
2486.00,0.0098
2485.00,0.0098
2484.00,0.0098
2483.00,0.0097
2482.00,0.0097
2481.00,0.0096
2480.00,0.0096
2479.00,0.0095
2478.00,0.0095
2477.00,0.0095
2476.00,0.0096
2475.00,0.0096
2474.00,0.0096
2473.00,0.0095
2472.00,0.0095
2471.00,0.0095
2470.00,0.0095
2469.00,0.0094
2468.00,0.0094
2467.00,0.0095
2466.00,0.0095
2465.00,0.0095
2464.00,0.0096
2463.00,0.0096
2462.00,0.0096
2461.00,0.0096
2460.00,0.0097
2459.00,0.0097
2458.00,0.0098
2457.00,0.0098
2456.00,0.0098
2455.00,0.0098
2454.00,0.0097
2453.00,0.0096
2452.00,0.0095
2451.00,0.0095
2450.00,0.0095
2449.00,0.0095
2448.00,0.0095
2447.00,0.0095
2446.00,0.0094
2445.00,0.0094
2444.00,0.0093
2443.00,0.0094
2442.00,0.0094
2441.00,0.0094
2440.00,0.0094
2439.00,0.0094
2438.00,0.0094
2437.00,0.0094
2436.00,0.0094
2435.00,0.0094
2434.00,0.0093
2433.00,0.0093
2432.00,0.0094
2431.00,0.0094
2430.00,0.0093
2429.00,0.0093
2428.00,0.0092
2427.00,0.0092
2426.00,0.0092
2425.00,0.0093
2424.00,0.0093
2423.00,0.0093
2422.00,0.0092
2421.00,0.0092
2420.00,0.0092
2419.00,0.0092
2418.00,0.0092
2417.00,0.0092
2416.00,0.0092
2415.00,0.0092
2414.00,0.0092
2413.00,0.0092
2412.00,0.0092
2411.00,0.0093
2410.00,0.0093
2409.00,0.0092
2408.00,0.0092
2407.00,0.0092
2406.00,0.0092
2405.00,0.0092
2404.00,0.0092
2403.00,0.0092
2402.00,0.0092
2401.00,0.0093
2400.00,0.0092
2399.00,0.0092
2398.00,0.0092
2397.00,0.0092
2396.00,0.0093
2395.00,0.0093
2394.00,0.0093
2393.00,0.0093
2392.00,0.0093
2391.00,0.0093
2390.00,0.0093
2389.00,0.0093
2388.00,0.0094
2387.00,0.0094
2386.00,0.0094
2385.00,0.0094
2384.00,0.0094
2383.00,0.0093
2382.00,0.0094
2381.00,0.0094
2380.00,0.0094
2379.00,0.0094
2378.00,0.0094
2377.00,0.0094
2376.00,0.0094
2375.00,0.0095
2374.00,0.0096
2373.00,0.0096
2372.00,0.0097
2371.00,0.0096
2370.00,0.0096
2369.00,0.0096
2368.00,0.0097
2367.00,0.0097
2366.00,0.0097
2365.00,0.0098
2364.00,0.0099
2363.00,0.0100
2362.00,0.0102
2361.00,0.0103
2360.00,0.0103
2359.00,0.0103
2358.00,0.0102
2357.00,0.0101
2356.00,0.0101
2355.00,0.0101
2354.00,0.0101
2353.00,0.0101
2352.00,0.0101
2351.00,0.0100
2350.00,0.0100
2349.00,0.0102
2348.00,0.0104
2347.00,0.0107
2346.00,0.0108
2345.00,0.0107
2344.00,0.0105
2343.00,0.0105
2342.00,0.0105
2341.00,0.0106
2340.00,0.0106
2339.00,0.0106
2338.00,0.0106
2337.00,0.0106
2336.00,0.0106
2335.00,0.0107
2334.00,0.0107
2333.00,0.0106
2332.00,0.0106
2331.00,0.0105
2330.00,0.0105
2329.00,0.0106
2328.00,0.0108
2327.00,0.0111
2326.00,0.0115
2325.00,0.0118
2324.00,0.0119
2323.00,0.0118
2322.00,0.0116
2321.00,0.0115
2320.00,0.0114
2319.00,0.0113
2318.00,0.0113
2317.00,0.0113
2316.00,0.0113
2315.00,0.0113
2314.00,0.0112
2313.00,0.0111
2312.00,0.0111
2311.00,0.0110
2310.00,0.0110
2309.00,0.0110
2308.00,0.0110
2307.00,0.0109
2306.00,0.0108
2305.00,0.0108
2304.00,0.0108
2303.00,0.0109
2302.00,0.0110
2301.00,0.0111
2300.00,0.0112
2299.00,0.0112
2298.00,0.0112
2297.00,0.0113
2296.00,0.0114
2295.00,0.0114
2294.00,0.0114
2293.00,0.0115
2292.00,0.0116
2291.00,0.0117
2290.00,0.0118
2289.00,0.0119
2288.00,0.0119
2287.00,0.0118
2286.00,0.0118
2285.00,0.0117
2284.00,0.0118
2283.00,0.0118
2282.00,0.0118
2281.00,0.0118
2280.00,0.0117
2279.00,0.0117
2278.00,0.0117
2277.00,0.0116
2276.00,0.0115
2275.00,0.0114
2274.00,0.0114
2273.00,0.0114
2272.00,0.0114
2271.00,0.0115
2270.00,0.0115
2269.00,0.0115
2268.00,0.0114
2267.00,0.0113
2266.00,0.0111
2265.00,0.0110
2264.00,0.0110
2263.00,0.0110
2262.00,0.0110
2261.00,0.0111
2260.00,0.0112
2259.00,0.0112
2258.00,0.0112
2257.00,0.0111
2256.00,0.0111
2255.00,0.0110
2254.00,0.0108
2253.00,0.0108
2252.00,0.0108
2251.00,0.0108
2250.00,0.0107
2249.00,0.0107
2248.00,0.0108
2247.00,0.0109
2246.00,0.0109
2245.00,0.0110
2244.00,0.0110
2243.00,0.0110
2242.00,0.0110
2241.00,0.0109
2240.00,0.0109
2239.00,0.0108
2238.00,0.0108
2237.00,0.0109
2236.00,0.0110
2235.00,0.0110
2234.00,0.0110
2233.00,0.0109
2232.00,0.0107
2231.00,0.0106
2230.00,0.0106
2229.00,0.0108
2228.00,0.0109
2227.00,0.0110
2226.00,0.0110
2225.00,0.0109
2224.00,0.0108
2223.00,0.0106
2222.00,0.0106
2221.00,0.0106
2220.00,0.0107
2219.00,0.0107
2218.00,0.0107
2217.00,0.0107
2216.00,0.0107
2215.00,0.0108
2214.00,0.0109
2213.00,0.0110
2212.00,0.0110
2211.00,0.0109
2210.00,0.0108
2209.00,0.0107
2208.00,0.0107
2207.00,0.0107
2206.00,0.0107
2205.00,0.0107
2204.00,0.0108
2203.00,0.0108
2202.00,0.0108
2201.00,0.0106
2200.00,0.0105
2199.00,0.0104
2198.00,0.0104
2197.00,0.0104
2196.00,0.0104
2195.00,0.0104
2194.00,0.0105
2193.00,0.0105
2192.00,0.0105
2191.00,0.0105
2190.00,0.0105
2189.00,0.0105
2188.00,0.0107
2187.00,0.0109
2186.00,0.0110
2185.00,0.0111
2184.00,0.0110
2183.00,0.0107
2182.00,0.0103
2181.00,0.0099
2180.00,0.0097
2179.00,0.0095
2178.00,0.0094
2177.00,0.0095
2176.00,0.0098
2175.00,0.0100
2174.00,0.0102
2173.00,0.0102
2172.00,0.0102
2171.00,0.0103
2170.00,0.0105
2169.00,0.0107
2168.00,0.0109
2167.00,0.0110
2166.00,0.0108
2165.00,0.0105
2164.00,0.0102
2163.00,0.0102
2162.00,0.0101
2161.00,0.0099
2160.00,0.0091
2159.00,0.0079
2158.00,0.0068
2157.00,0.0065
2156.00,0.0067
2155.00,0.0072
2154.00,0.0077
2153.00,0.0080
2152.00,0.0082
2151.00,0.0082
2150.00,0.0082
2149.00,0.0081
2148.00,0.0081
2147.00,0.0082
2146.00,0.0083
2145.00,0.0085
2144.00,0.0087
2143.00,0.0088
2142.00,0.0089
2141.00,0.0090
2140.00,0.0091
2139.00,0.0092
2138.00,0.0093
2137.00,0.0093
2136.00,0.0092
2135.00,0.0091
2134.00,0.0090
2133.00,0.0091
2132.00,0.0094
2131.00,0.0097
2130.00,0.0100
2129.00,0.0103
2128.00,0.0106
2127.00,0.0109
2126.00,0.0110
2125.00,0.0111
2124.00,0.0112
2123.00,0.0113
2122.00,0.0113
2121.00,0.0113
2120.00,0.0113
2119.00,0.0113
2118.00,0.0114
2117.00,0.0116
2116.00,0.0119
2115.00,0.0121
2114.00,0.0122
2113.00,0.0121
2112.00,0.0121
2111.00,0.0121
2110.00,0.0121
2109.00,0.0121
2108.00,0.0121
2107.00,0.0121
2106.00,0.0121
2105.00,0.0122
2104.00,0.0122
2103.00,0.0121
2102.00,0.0121
2101.00,0.0121
2100.00,0.0121
2099.00,0.0121
2098.00,0.0120
2097.00,0.0119
2096.00,0.0117
2095.00,0.0115
2094.00,0.0113
2093.00,0.0113
2092.00,0.0114
2091.00,0.0115
2090.00,0.0115
2089.00,0.0115
2088.00,0.0115
2087.00,0.0115
2086.00,0.0115
2085.00,0.0116
2084.00,0.0117
2083.00,0.0118
2082.00,0.0117
2081.00,0.0117
2080.00,0.0117
2079.00,0.0117
2078.00,0.0117
2077.00,0.0117
2076.00,0.0116
2075.00,0.0114
2074.00,0.0113
2073.00,0.0112
2072.00,0.0111
2071.00,0.0110
2070.00,0.0110
2069.00,0.0109
2068.00,0.0109
2067.00,0.0109
2066.00,0.0107
2065.00,0.0106
2064.00,0.0105
2063.00,0.0105
2062.00,0.0105
2061.00,0.0104
2060.00,0.0103
2059.00,0.0102
2058.00,0.0101
2057.00,0.0101
2056.00,0.0101
2055.00,0.0100
2054.00,0.0100
2053.00,0.0101
2052.00,0.0104
2051.00,0.0105
2050.00,0.0104
2049.00,0.0100
2048.00,0.0097
2047.00,0.0095
2046.00,0.0093
2045.00,0.0091
2044.00,0.0088
2043.00,0.0086
2042.00,0.0084
2041.00,0.0083
2040.00,0.0083
2039.00,0.0083
2038.00,0.0083
2037.00,0.0082
2036.00,0.0081
2035.00,0.0078
2034.00,0.0075
2033.00,0.0073
2032.00,0.0073
2031.00,0.0074
2030.00,0.0074
2029.00,0.0072
2028.00,0.0070
2027.00,0.0067
2026.00,0.0064
2025.00,0.0064
2024.00,0.0067
2023.00,0.0071
2022.00,0.0074
2021.00,0.0076
2020.00,0.0077
2019.00,0.0075
2018.00,0.0072
2017.00,0.0069
2016.00,0.0067
2015.00,0.0065
2014.00,0.0065
2013.00,0.0065
2012.00,0.0066
2011.00,0.0067
2010.00,0.0067
2009.00,0.0067
2008.00,0.0066
2007.00,0.0063
2006.00,0.0060
2005.00,0.0060
2004.00,0.0062
2003.00,0.0065
2002.00,0.0068
2001.00,0.0071
2000.00,0.0073
1999.00,0.0075
1998.00,0.0076
1997.00,0.0077
1996.00,0.0080
1995.00,0.0082
1994.00,0.0083
1993.00,0.0083
1992.00,0.0082
1991.00,0.0080
1990.00,0.0079
1989.00,0.0079
1988.00,0.0079
1987.00,0.0078
1986.00,0.0077
1985.00,0.0077
1984.00,0.0078
1983.00,0.0080
1982.00,0.0080
1981.00,0.0080
1980.00,0.0080
1979.00,0.0077
1978.00,0.0073
1977.00,0.0069
1976.00,0.0066
1975.00,0.0063
1974.00,0.0060
1973.00,0.0059
1972.00,0.0059
1971.00,0.0060
1970.00,0.0060
1969.00,0.0061
1968.00,0.0062
1967.00,0.0062
1966.00,0.0061
1965.00,0.0061
1964.00,0.0062
1963.00,0.0062
1962.00,0.0061
1961.00,0.0060
1960.00,0.0060
1959.00,0.0060
1958.00,0.0060
1957.00,0.0062
1956.00,0.0066
1955.00,0.0067
1954.00,0.0067
1953.00,0.0065
1952.00,0.0065
1951.00,0.0064
1950.00,0.0064
1949.00,0.0065
1948.00,0.0065
1947.00,0.0066
1946.00,0.0067
1945.00,0.0068
1944.00,0.0069
1943.00,0.0068
1942.00,0.0066
1941.00,0.0065
1940.00,0.0066
1939.00,0.0068
1938.00,0.0068
1937.00,0.0068
1936.00,0.0068
1935.00,0.0068
1934.00,0.0069
1933.00,0.0069
1932.00,0.0069
1931.00,0.0068
1930.00,0.0067
1929.00,0.0068
1928.00,0.0068
1927.00,0.0069
1926.00,0.0069
1925.00,0.0070
1924.00,0.0071
1923.00,0.0072
1922.00,0.0071
1921.00,0.0072
1920.00,0.0073
1919.00,0.0074
1918.00,0.0072
1917.00,0.0070
1916.00,0.0069
1915.00,0.0069
1914.00,0.0070
1913.00,0.0071
1912.00,0.0072
1911.00,0.0072
1910.00,0.0072
1909.00,0.0071
1908.00,0.0070
1907.00,0.0069
1906.00,0.0069
1905.00,0.0069
1904.00,0.0068
1903.00,0.0068
1902.00,0.0067
1901.00,0.0068
1900.00,0.0070
1899.00,0.0071
1898.00,0.0071
1897.00,0.0072
1896.00,0.0071
1895.00,0.0070
1894.00,0.0068
1893.00,0.0067
1892.00,0.0067
1891.00,0.0068
1890.00,0.0068
1889.00,0.0066
1888.00,0.0065
1887.00,0.0065
1886.00,0.0065
1885.00,0.0065
1884.00,0.0064
1883.00,0.0064
1882.00,0.0064
1881.00,0.0065
1880.00,0.0066
1879.00,0.0065
1878.00,0.0064
1877.00,0.0063
1876.00,0.0063
1875.00,0.0063
1874.00,0.0065
1873.00,0.0066
1872.00,0.0068
1871.00,0.0069
1870.00,0.0069
1869.00,0.0067
1868.00,0.0064
1867.00,0.0062
1866.00,0.0061
1865.00,0.0061
1864.00,0.0062
1863.00,0.0062
1862.00,0.0062
1861.00,0.0062
1860.00,0.0062
1859.00,0.0062
1858.00,0.0062
1857.00,0.0061
1856.00,0.0061
1855.00,0.0061
1854.00,0.0061
1853.00,0.0061
1852.00,0.0061
1851.00,0.0061
1850.00,0.0061
1849.00,0.0062
1848.00,0.0062
1847.00,0.0064
1846.00,0.0066
1845.00,0.0067
1844.00,0.0065
1843.00,0.0061
1842.00,0.0058
1841.00,0.0058
1840.00,0.0060
1839.00,0.0062
1838.00,0.0062
1837.00,0.0062
1836.00,0.0062
1835.00,0.0062
1834.00,0.0062
1833.00,0.0063
1832.00,0.0066
1831.00,0.0068
1830.00,0.0067
1829.00,0.0064
1828.00,0.0063
1827.00,0.0063
1826.00,0.0063
1825.00,0.0062
1824.00,0.0060
1823.00,0.0059
1822.00,0.0060
1821.00,0.0061
1820.00,0.0062
1819.00,0.0062
1818.00,0.0061
1817.00,0.0060
1816.00,0.0059
1815.00,0.0059
1814.00,0.0060
1813.00,0.0062
1812.00,0.0063
1811.00,0.0063
1810.00,0.0062
1809.00,0.0061
1808.00,0.0061
1807.00,0.0060
1806.00,0.0061
1805.00,0.0061
1804.00,0.0062
1803.00,0.0062
1802.00,0.0062
1801.00,0.0062
1800.00,0.0062
1799.00,0.0062
1798.00,0.0062
1797.00,0.0062
1796.00,0.0062
1795.00,0.0063
1794.00,0.0065
1793.00,0.0066
1792.00,0.0064
1791.00,0.0060
1790.00,0.0058
1789.00,0.0059
1788.00,0.0061
1787.00,0.0062
1786.00,0.0062
1785.00,0.0061
1784.00,0.0060
1783.00,0.0060
1782.00,0.0061
1781.00,0.0061
1780.00,0.0061
1779.00,0.0060
1778.00,0.0060
1777.00,0.0061
1776.00,0.0062
1775.00,0.0063
1774.00,0.0066
1773.00,0.0068
1772.00,0.0067
1771.00,0.0063
1770.00,0.0061
1769.00,0.0060
1768.00,0.0060
1767.00,0.0059
1766.00,0.0059
1765.00,0.0060
1764.00,0.0063
1763.00,0.0064
1762.00,0.0063
1761.00,0.0062
1760.00,0.0062
1759.00,0.0065
1758.00,0.0068
1757.00,0.0070
1756.00,0.0071
1755.00,0.0073
1754.00,0.0077
1753.00,0.0083
1752.00,0.0089
1751.00,0.0094
1750.00,0.0095
1749.00,0.0097
1748.00,0.0100
1747.00,0.0103
1746.00,0.0106
1745.00,0.0109
1744.00,0.0111
1743.00,0.0113
1742.00,0.0115
1741.00,0.0118
1740.00,0.0122
1739.00,0.0123
1738.00,0.0122
1737.00,0.0124
1736.00,0.0129
1735.00,0.0136
1734.00,0.0137
1733.00,0.0135
1732.00,0.0134
1731.00,0.0136
1730.00,0.0137
1729.00,0.0138
1728.00,0.0140
1727.00,0.0144
1726.00,0.0147
1725.00,0.0151
1724.00,0.0154
1723.00,0.0157
1722.00,0.0159
1721.00,0.0163
1720.00,0.0169
1719.00,0.0177
1718.00,0.0183
1717.00,0.0188
1716.00,0.0191
1715.00,0.0194
1714.00,0.0197
1713.00,0.0201
1712.00,0.0207
1711.00,0.0213
1710.00,0.0219
1709.00,0.0226
1708.00,0.0235
1707.00,0.0245
1706.00,0.0254
1705.00,0.0262
1704.00,0.0269
1703.00,0.0276
1702.00,0.0287
1701.00,0.0306
1700.00,0.0328
1699.00,0.0345
1698.00,0.0359
1697.00,0.0376
1696.00,0.0397
1695.00,0.0417
1694.00,0.0435
1693.00,0.0452
1692.00,0.0470
1691.00,0.0491
1690.00,0.0512
1689.00,0.0533
1688.00,0.0552
1687.00,0.0569
1686.00,0.0590
1685.00,0.0621
1684.00,0.0657
1683.00,0.0687
1682.00,0.0709
1681.00,0.0729
1680.00,0.0748
1679.00,0.0767
1678.00,0.0785
1677.00,0.0805
1676.00,0.0832
1675.00,0.0863
1674.00,0.0892
1673.00,0.0916
1672.00,0.0937
1671.00,0.0961
1670.00,0.0989
1669.00,0.1020
1668.00,0.1050
1667.00,0.1075
1666.00,0.1094
1665.00,0.1114
1664.00,0.1139
1663.00,0.1171
1662.00,0.1204
1661.00,0.1235
1660.00,0.1262
1659.00,0.1286
1658.00,0.1305
1657.00,0.1318
1656.00,0.1325
1655.00,0.1334
1654.00,0.1359
1653.00,0.1410
1652.00,0.1460
1651.00,0.1486
1650.00,0.1490
1649.00,0.1488
1648.00,0.1492
1647.00,0.1507
1646.00,0.1527
1645.00,0.1544
1644.00,0.1553
1643.00,0.1555
1642.00,0.1555
1641.00,0.1554
1640.00,0.1555
1639.00,0.1553
1638.00,0.1550
1637.00,0.1549
1636.00,0.1556
1635.00,0.1568
1634.00,0.1572
1633.00,0.1566
1632.00,0.1553
1631.00,0.1537
1630.00,0.1520
1629.00,0.1503
1628.00,0.1488
1627.00,0.1473
1626.00,0.1457
1625.00,0.1438
1624.00,0.1418
1623.00,0.1397
1622.00,0.1377
1621.00,0.1354
1620.00,0.1329
1619.00,0.1303
1618.00,0.1276
1617.00,0.1250
1616.00,0.1226
1615.00,0.1202
1614.00,0.1176
1613.00,0.1148
1612.00,0.1119
1611.00,0.1090
1610.00,0.1063
1609.00,0.1037
1608.00,0.1011
1607.00,0.0986
1606.00,0.0962
1605.00,0.0938
1604.00,0.0914
1603.00,0.0891
1602.00,0.0868
1601.00,0.0846
1600.00,0.0825
1599.00,0.0805
1598.00,0.0786
1597.00,0.0767
1596.00,0.0748
1595.00,0.0731
1594.00,0.0714
1593.00,0.0698
1592.00,0.0682
1591.00,0.0667
1590.00,0.0654
1589.00,0.0642
1588.00,0.0630
1587.00,0.0619
1586.00,0.0610
1585.00,0.0601
1584.00,0.0592
1583.00,0.0585
1582.00,0.0579
1581.00,0.0573
1580.00,0.0567
1579.00,0.0562
1578.00,0.0559
1577.00,0.0559
1576.00,0.0560
1575.00,0.0560
1574.00,0.0560
1573.00,0.0558
1572.00,0.0556
1571.00,0.0557
1570.00,0.0561
1569.00,0.0565
1568.00,0.0568
1567.00,0.0572
1566.00,0.0576
1565.00,0.0580
1564.00,0.0583
1563.00,0.0584
1562.00,0.0583
1561.00,0.0585
1560.00,0.0596
1559.00,0.0616
1558.00,0.0636
1557.00,0.0649
1556.00,0.0654
1555.00,0.0658
1554.00,0.0664
1553.00,0.0669
1552.00,0.0673
1551.00,0.0676
1550.00,0.0678
1549.00,0.0680
1548.00,0.0682
1547.00,0.0682
1546.00,0.0680
1545.00,0.0677
1544.00,0.0673
1543.00,0.0669
1542.00,0.0667
1541.00,0.0664
1540.00,0.0660
1539.00,0.0652
1538.00,0.0644
1537.00,0.0633
1536.00,0.0621
1535.00,0.0608
1534.00,0.0595
1533.00,0.0582
1532.00,0.0569
1531.00,0.0558
1530.00,0.0548
1529.00,0.0537
1528.00,0.0524
1527.00,0.0511
1526.00,0.0499
1525.00,0.0489
1524.00,0.0479
1523.00,0.0470
1522.00,0.0460
1521.00,0.0449
1520.00,0.0438
1519.00,0.0429
1518.00,0.0419
1517.00,0.0406
1516.00,0.0391
1515.00,0.0377
1514.00,0.0364
1513.00,0.0352
1512.00,0.0338
1511.00,0.0323
1510.00,0.0309
1509.00,0.0297
1508.00,0.0286
1507.00,0.0271
1506.00,0.0255
1505.00,0.0243
1504.00,0.0234
1503.00,0.0224
1502.00,0.0213
1501.00,0.0203
1500.00,0.0193
1499.00,0.0185
1498.00,0.0176
1497.00,0.0169
1496.00,0.0161
1495.00,0.0155
1494.00,0.0150
1493.00,0.0146
1492.00,0.0144
1491.00,0.0141
1490.00,0.0136
1489.00,0.0130
1488.00,0.0125
1487.00,0.0121
1486.00,0.0119
1485.00,0.0118
1484.00,0.0118
1483.00,0.0119
1482.00,0.0121
1481.00,0.0123
1480.00,0.0126
1479.00,0.0130
1478.00,0.0135
1477.00,0.0141
1476.00,0.0146
1475.00,0.0153
1474.00,0.0163
1473.00,0.0174
1472.00,0.0183
1471.00,0.0190
1470.00,0.0195
1469.00,0.0200
1468.00,0.0203
1467.00,0.0206
1466.00,0.0210
1465.00,0.0216
1464.00,0.0221
1463.00,0.0227
1462.00,0.0232
1461.00,0.0235
1460.00,0.0238
1459.00,0.0242
1458.00,0.0247
1457.00,0.0255
1456.00,0.0262
1455.00,0.0266
1454.00,0.0267
1453.00,0.0266
1452.00,0.0264
1451.00,0.0262
1450.00,0.0261
1449.00,0.0261
1448.00,0.0260
1447.00,0.0259
1446.00,0.0258
1445.00,0.0258
1444.00,0.0257
1443.00,0.0257
1442.00,0.0257
1441.00,0.0257
1440.00,0.0257
1439.00,0.0256
1438.00,0.0256
1437.00,0.0257
1436.00,0.0260
1435.00,0.0263
1434.00,0.0265
1433.00,0.0268
1432.00,0.0270
1431.00,0.0273
1430.00,0.0276
1429.00,0.0279
1428.00,0.0283
1427.00,0.0287
1426.00,0.0291
1425.00,0.0295
1424.00,0.0299
1423.00,0.0302
1422.00,0.0303
1421.00,0.0306
1420.00,0.0310
1419.00,0.0314
1418.00,0.0317
1417.00,0.0320
1416.00,0.0321
1415.00,0.0321
1414.00,0.0320
1413.00,0.0319
1412.00,0.0318
1411.00,0.0316
1410.00,0.0314
1409.00,0.0311
1408.00,0.0309
1407.00,0.0305
1406.00,0.0302
1405.00,0.0298
1404.00,0.0295
1403.00,0.0291
1402.00,0.0287
1401.00,0.0283
1400.00,0.0279
1399.00,0.0273
1398.00,0.0268
1397.00,0.0262
1396.00,0.0257
1395.00,0.0251
1394.00,0.0246
1393.00,0.0242
1392.00,0.0240
1391.00,0.0237
1390.00,0.0235
1389.00,0.0232
1388.00,0.0230
1387.00,0.0229
1386.00,0.0229
1385.00,0.0230
1384.00,0.0231
1383.00,0.0232
1382.00,0.0233
1381.00,0.0234
1380.00,0.0235
1379.00,0.0235
1378.00,0.0235
1377.00,0.0234
1376.00,0.0234
1375.00,0.0232
1374.00,0.0229
1373.00,0.0227
1372.00,0.0224
1371.00,0.0222
1370.00,0.0219
1369.00,0.0216
1368.00,0.0211
1367.00,0.0207
1366.00,0.0202
1365.00,0.0198
1364.00,0.0192
1363.00,0.0187
1362.00,0.0183
1361.00,0.0180
1360.00,0.0177
1359.00,0.0175
1358.00,0.0173
1357.00,0.0170
1356.00,0.0167
1355.00,0.0164
1354.00,0.0160
1353.00,0.0157
1352.00,0.0153
1351.00,0.0149
1350.00,0.0144
1349.00,0.0140
1348.00,0.0135
1347.00,0.0130
1346.00,0.0125
1345.00,0.0120
1344.00,0.0115
1343.00,0.0110
1342.00,0.0106
1341.00,0.0101
1340.00,0.0096
1339.00,0.0090
1338.00,0.0086
1337.00,0.0082
1336.00,0.0079
1335.00,0.0076
1334.00,0.0072
1333.00,0.0069
1332.00,0.0066
1331.00,0.0063
1330.00,0.0062
1329.00,0.0060
1328.00,0.0060
1327.00,0.0059
1326.00,0.0059
1325.00,0.0060
1324.00,0.0061
1323.00,0.0062
1322.00,0.0064
1321.00,0.0066
1320.00,0.0068
1319.00,0.0069
1318.00,0.0070
1317.00,0.0071
1316.00,0.0071
1315.00,0.0072
1314.00,0.0072
1313.00,0.0072
1312.00,0.0073
1311.00,0.0073
1310.00,0.0074
1309.00,0.0075
1308.00,0.0076
1307.00,0.0078
1306.00,0.0080
1305.00,0.0082
1304.00,0.0085
1303.00,0.0089
1302.00,0.0094
1301.00,0.0099
1300.00,0.0106
1299.00,0.0113
1298.00,0.0121
1297.00,0.0129
1296.00,0.0139
1295.00,0.0151
1294.00,0.0163
1293.00,0.0176
1292.00,0.0191
1291.00,0.0207
1290.00,0.0224
1289.00,0.0243
1288.00,0.0263
1287.00,0.0285
1286.00,0.0307
1285.00,0.0331
1284.00,0.0355
1283.00,0.0380
1282.00,0.0407
1281.00,0.0434
1280.00,0.0461
1279.00,0.0490
1278.00,0.0518
1277.00,0.0547
1276.00,0.0576
1275.00,0.0606
1274.00,0.0635
1273.00,0.0664
1272.00,0.0694
1271.00,0.0723
1270.00,0.0751
1269.00,0.0779
1268.00,0.0807
1267.00,0.0833
1266.00,0.0859
1265.00,0.0883
1264.00,0.0907
1263.00,0.0930
1262.00,0.0952
1261.00,0.0973
1260.00,0.0993
1259.00,0.1012
1258.00,0.1030
1257.00,0.1047
1256.00,0.1063
1255.00,0.1078
1254.00,0.1092
1253.00,0.1105
1252.00,0.1117
1251.00,0.1128
1250.00,0.1138
1249.00,0.1148
1248.00,0.1158
1247.00,0.1167
1246.00,0.1177
1245.00,0.1186
1244.00,0.1196
1243.00,0.1206
1242.00,0.1215
1241.00,0.1226
1240.00,0.1237
1239.00,0.1248
1238.00,0.1260
1237.00,0.1271
1236.00,0.1284
1235.00,0.1296
1234.00,0.1308
1233.00,0.1321
1232.00,0.1333
1231.00,0.1346
1230.00,0.1359
1229.00,0.1370
1228.00,0.1382
1227.00,0.1393
1226.00,0.1403
1225.00,0.1412
1224.00,0.1422
1223.00,0.1430
1222.00,0.1437
1221.00,0.1442
1220.00,0.1445
1219.00,0.1446
1218.00,0.1444
1217.00,0.1441
1216.00,0.1435
1215.00,0.1426
1214.00,0.1414
1213.00,0.1400
1212.00,0.1383
1211.00,0.1364
1210.00,0.1343
1209.00,0.1321
1208.00,0.1297
1207.00,0.1271
1206.00,0.1244
1205.00,0.1216
1204.00,0.1188
1203.00,0.1160
1202.00,0.1131
1201.00,0.1104
1200.00,0.1079
1199.00,0.1054
1198.00,0.1031
1197.00,0.1010
1196.00,0.0990
1195.00,0.0972
1194.00,0.0954
1193.00,0.0937
1192.00,0.0920
1191.00,0.0903
1190.00,0.0885
1189.00,0.0867
1188.00,0.0850
1187.00,0.0833
1186.00,0.0817
1185.00,0.0803
1184.00,0.0791
1183.00,0.0781
1182.00,0.0773
1181.00,0.0767
1180.00,0.0765
1179.00,0.0764
1178.00,0.0766
1177.00,0.0770
1176.00,0.0776
1175.00,0.0783
1174.00,0.0792
1173.00,0.0804
1172.00,0.0818
1171.00,0.0834
1170.00,0.0852
1169.00,0.0873
1168.00,0.0897
1167.00,0.0921
1166.00,0.0947
1165.00,0.0974
1164.00,0.1000
1163.00,0.1027
1162.00,0.1052
1161.00,0.1077
1160.00,0.1100
1159.00,0.1121
1158.00,0.1140
1157.00,0.1156
1156.00,0.1170
1155.00,0.1181
1154.00,0.1189
1153.00,0.1195
1152.00,0.1199
1151.00,0.1199
1150.00,0.1196
1149.00,0.1190
1148.00,0.1182
1147.00,0.1171
1146.00,0.1157
1145.00,0.1143
1144.00,0.1128
1143.00,0.1113
1142.00,0.1097
1141.00,0.1083
1140.00,0.1070
1139.00,0.1059
1138.00,0.1049
1137.00,0.1040
1136.00,0.1034
1135.00,0.1029
1134.00,0.1026
1133.00,0.1025
1132.00,0.1028
1131.00,0.1032
1130.00,0.1038
1129.00,0.1046
1128.00,0.1056
1127.00,0.1063
1126.00,0.1067
1125.00,0.1066
1124.00,0.1059
1123.00,0.1048
1122.00,0.1033
1121.00,0.1015
1120.00,0.0997
1119.00,0.0978
1118.00,0.0959
1117.00,0.0942
1116.00,0.0927
1115.00,0.0913
1114.00,0.0901
1113.00,0.0892
1112.00,0.0885
1111.00,0.0880
1110.00,0.0879
1109.00,0.0881
1108.00,0.0886
1107.00,0.0894
1106.00,0.0904
1105.00,0.0918
1104.00,0.0935
1103.00,0.0953
1102.00,0.0973
1101.00,0.0994
1100.00,0.1017
1099.00,0.1040
1098.00,0.1064
1097.00,0.1088
1096.00,0.1112
1095.00,0.1135
1094.00,0.1159
1093.00,0.1182
1092.00,0.1207
1091.00,0.1232
1090.00,0.1258
1089.00,0.1284
1088.00,0.1311
1087.00,0.1339
1086.00,0.1367
1085.00,0.1397
1084.00,0.1428
1083.00,0.1460
1082.00,0.1493
1081.00,0.1527
1080.00,0.1562
1079.00,0.1595
1078.00,0.1625
1077.00,0.1654
1076.00,0.1679
1075.00,0.1702
1074.00,0.1720
1073.00,0.1735
1072.00,0.1746
1071.00,0.1752
1070.00,0.1756
1069.00,0.1756
1068.00,0.1754
1067.00,0.1749
1066.00,0.1741
1065.00,0.1733
1064.00,0.1724
1063.00,0.1715
1062.00,0.1706
1061.00,0.1698
1060.00,0.1692
1059.00,0.1689
1058.00,0.1687
1057.00,0.1690
1056.00,0.1696
1055.00,0.1705
1054.00,0.1718
1053.00,0.1734
1052.00,0.1754
1051.00,0.1777
1050.00,0.1803
1049.00,0.1833
1048.00,0.1867
1047.00,0.1901
1046.00,0.1934
1045.00,0.1966
1044.00,0.1996
1043.00,0.2023
1042.00,0.2045
1041.00,0.2063
1040.00,0.2076
1039.00,0.2085
1038.00,0.2091
1037.00,0.2097
1036.00,0.2102
1035.00,0.2106
1034.00,0.2112
1033.00,0.2119
1032.00,0.2129
1031.00,0.2139
1030.00,0.2150
1029.00,0.2159
1028.00,0.2166
1027.00,0.2168
1026.00,0.2166
1025.00,0.2162
1024.00,0.2154
1023.00,0.2143
1022.00,0.2131
1021.00,0.2119
1020.00,0.2105
1019.00,0.2088
1018.00,0.2069
1017.00,0.2049
1016.00,0.2027
1015.00,0.2003
1014.00,0.1977
1013.00,0.1951
1012.00,0.1924
1011.00,0.1897
1010.00,0.1869
1009.00,0.1842
1008.00,0.1815
1007.00,0.1787
1006.00,0.1759
1005.00,0.1728
1004.00,0.1696
1003.00,0.1660
1002.00,0.1621
1001.00,0.1578
1000.00,0.1534
999.00,0.1487
998.00,0.1440
997.00,0.1394
996.00,0.1350
995.00,0.1307
994.00,0.1265
993.00,0.1224
992.00,0.1184
991.00,0.1144
990.00,0.1104
989.00,0.1065
988.00,0.1027
987.00,0.0989
986.00,0.0953
985.00,0.0918
984.00,0.0885
983.00,0.0854
982.00,0.0826
981.00,0.0801
980.00,0.0779
979.00,0.0758
978.00,0.0738
977.00,0.0720
976.00,0.0701
975.00,0.0683
974.00,0.0664
973.00,0.0644
972.00,0.0622
971.00,0.0599
970.00,0.0573
969.00,0.0545
968.00,0.0514
967.00,0.0481
966.00,0.0446
965.00,0.0409
964.00,0.0373
963.00,0.0337
962.00,0.0303
961.00,0.0272
960.00,0.0244
959.00,0.0219
958.00,0.0197
957.00,0.0177
956.00,0.0160
955.00,0.0145
954.00,0.0134
953.00,0.0124
952.00,0.0118
951.00,0.0113
950.00,0.0111
949.00,0.0110
948.00,0.0111
947.00,0.0115
946.00,0.0121
945.00,0.0129
944.00,0.0141
943.00,0.0156
942.00,0.0174
941.00,0.0195
940.00,0.0218
939.00,0.0243
938.00,0.0268
937.00,0.0293
936.00,0.0318
935.00,0.0340
934.00,0.0359
933.00,0.0373
932.00,0.0382
931.00,0.0387
930.00,0.0387
929.00,0.0384
928.00,0.0376
927.00,0.0365
926.00,0.0352
925.00,0.0339
924.00,0.0325
923.00,0.0311
922.00,0.0297
921.00,0.0283
920.00,0.0269
919.00,0.0255
918.00,0.0241
917.00,0.0228
916.00,0.0216
915.00,0.0204
914.00,0.0193
913.00,0.0183
912.00,0.0173
911.00,0.0165
910.00,0.0158
909.00,0.0153
908.00,0.0149
907.00,0.0145
906.00,0.0141
905.00,0.0137
904.00,0.0134
903.00,0.0130
902.00,0.0127
901.00,0.0125
900.00,0.0122
899.00,0.0119
898.00,0.0118
897.00,0.0117
896.00,0.0117
895.00,0.0118
894.00,0.0119
893.00,0.0120
892.00,0.0122
891.00,0.0123
890.00,0.0124
889.00,0.0124
888.00,0.0123
887.00,0.0120
886.00,0.0115
885.00,0.0108
884.00,0.0100
883.00,0.0090
882.00,0.0080
881.00,0.0071
880.00,0.0063
879.00,0.0057
878.00,0.0053
877.00,0.0051
876.00,0.0052
875.00,0.0054
874.00,0.0057
873.00,0.0060
872.00,0.0061
871.00,0.0061
870.00,0.0059
869.00,0.0057
868.00,0.0056
867.00,0.0056
866.00,0.0058
865.00,0.0061
864.00,0.0065
863.00,0.0071
862.00,0.0079
861.00,0.0090
860.00,0.0103
859.00,0.0117
858.00,0.0133
857.00,0.0151
856.00,0.0170
855.00,0.0190
854.00,0.0210
853.00,0.0231
852.00,0.0251
851.00,0.0271
850.00,0.0289
849.00,0.0305
848.00,0.0319
847.00,0.0331
846.00,0.0340
845.00,0.0345
844.00,0.0348
843.00,0.0348
842.00,0.0347
841.00,0.0344
840.00,0.0342
839.00,0.0340
838.00,0.0339
837.00,0.0338
836.00,0.0336
835.00,0.0334
834.00,0.0330
833.00,0.0326
832.00,0.0320
831.00,0.0312
830.00,0.0303
829.00,0.0293
828.00,0.0283
827.00,0.0272
826.00,0.0260
825.00,0.0250
824.00,0.0241
823.00,0.0233
822.00,0.0224
821.00,0.0216
820.00,0.0208
819.00,0.0200
818.00,0.0192
817.00,0.0186
816.00,0.0181
815.00,0.0177
814.00,0.0173
813.00,0.0169
812.00,0.0164
811.00,0.0160
810.00,0.0157
809.00,0.0153
808.00,0.0148
807.00,0.0142
806.00,0.0136
805.00,0.0130
804.00,0.0125
803.00,0.0119
802.00,0.0112
801.00,0.0106
800.00,0.0099
799.00,0.0092
798.00,0.0086
797.00,0.0081
796.00,0.0076
795.00,0.0070
794.00,0.0066
793.00,0.0063
792.00,0.0062
791.00,0.0061
790.00,0.0060
789.00,0.0058
788.00,0.0057
787.00,0.0057
786.00,0.0058
785.00,0.0060
784.00,0.0062
783.00,0.0065
782.00,0.0068
781.00,0.0071
780.00,0.0075
779.00,0.0081
778.00,0.0087
777.00,0.0094
776.00,0.0101
775.00,0.0106
774.00,0.0109
773.00,0.0111
772.00,0.0113
771.00,0.0112
770.00,0.0110
769.00,0.0105
768.00,0.0100
767.00,0.0094
766.00,0.0089
765.00,0.0084
764.00,0.0079
763.00,0.0074
762.00,0.0070
761.00,0.0068
760.00,0.0067
759.00,0.0066
758.00,0.0066
757.00,0.0065
756.00,0.0065
755.00,0.0067
754.00,0.0072
753.00,0.0080
752.00,0.0090
751.00,0.0100
750.00,0.0110
749.00,0.0120
748.00,0.0130
747.00,0.0139
746.00,0.0148
745.00,0.0157
744.00,0.0164
743.00,0.0170
742.00,0.0174
741.00,0.0177
740.00,0.0179
739.00,0.0181
738.00,0.0182
737.00,0.0184
736.00,0.0185
735.00,0.0186
734.00,0.0186
733.00,0.0186
732.00,0.0185
731.00,0.0185
730.00,0.0185
729.00,0.0186
728.00,0.0188
727.00,0.0190
726.00,0.0191
725.00,0.0194
724.00,0.0195
723.00,0.0196
722.00,0.0195
721.00,0.0192
720.00,0.0190
719.00,0.0186
718.00,0.0182
717.00,0.0178
716.00,0.0175
715.00,0.0173
714.00,0.0172
713.00,0.0171
712.00,0.0171
711.00,0.0174
710.00,0.0178
709.00,0.0185
708.00,0.0192
707.00,0.0200
706.00,0.0206
705.00,0.0214
704.00,0.0221
703.00,0.0227
702.00,0.0232
701.00,0.0235
700.00,0.0237
699.00,0.0237
698.00,0.0235
697.00,0.0230
696.00,0.0224
695.00,0.0215
694.00,0.0205
693.00,0.0195
692.00,0.0183
691.00,0.0171
690.00,0.0159
689.00,0.0149
688.00,0.0142
687.00,0.0135
686.00,0.0128
685.00,0.0121
684.00,0.0113
683.00,0.0105
682.00,0.0098
681.00,0.0095
680.00,0.0093
679.00,0.0092
678.00,0.0090
677.00,0.0089
676.00,0.0089
675.00,0.0091
674.00,0.0094
673.00,0.0097
672.00,0.0097
671.00,0.0092
670.00,0.0083
669.00,0.0081
668.00,0.0094
667.00,0.0114
666.00,0.0125
665.00,0.0125
664.00,0.0123
663.00,0.0124
662.00,0.0130
661.00,0.0139
660.00,0.0147
659.00,0.0155
658.00,0.0161
657.00,0.0162
656.00,0.0158
655.00,0.0151
654.00,0.0142
653.00,0.0131
652.00,0.0122
651.00,0.0113
650.00,0.0105
649.00,0.0100
648.00,0.0096
647.00,0.0093
646.00,0.0091
645.00,0.0091
644.00,0.0091
643.00,0.0089
642.00,0.0085
641.00,0.0079
640.00,0.0074
639.00,0.0069
638.00,0.0064
637.00,0.0063
636.00,0.0066
635.00,0.0072
634.00,0.0081
633.00,0.0092
632.00,0.0104
631.00,0.0118
630.00,0.0132
629.00,0.0147
628.00,0.0165
627.00,0.0184
626.00,0.0204
625.00,0.0226
624.00,0.0248
623.00,0.0271
622.00,0.0292
621.00,0.0314
620.00,0.0337
619.00,0.0361
618.00,0.0382
617.00,0.0403
616.00,0.0422
615.00,0.0438
614.00,0.0449
613.00,0.0456
612.00,0.0461
611.00,0.0464
610.00,0.0468
609.00,0.0473
608.00,0.0480
607.00,0.0486
606.00,0.0493
605.00,0.0501
604.00,0.0510
603.00,0.0520
602.00,0.0527
601.00,0.0535
600.00,0.0544
599.00,0.0554
598.00,0.0563
597.00,0.0571
596.00,0.0578
595.00,0.0582
594.00,0.0581
593.00,0.0581
592.00,0.0581
591.00,0.0582
590.00,0.0583
589.00,0.0588
588.00,0.0599
587.00,0.0611
586.00,0.0620
585.00,0.0630
584.00,0.0642
583.00,0.0656
582.00,0.0669
581.00,0.0680
580.00,0.0691
579.00,0.0699
578.00,0.0700
577.00,0.0697
576.00,0.0693
575.00,0.0686
574.00,0.0673
573.00,0.0660
572.00,0.0648
571.00,0.0637
570.00,0.0624
569.00,0.0608
568.00,0.0591
567.00,0.0573
566.00,0.0554
565.00,0.0537
564.00,0.0522
563.00,0.0510
562.00,0.0499
561.00,0.0489
560.00,0.0481
559.00,0.0475
558.00,0.0468
557.00,0.0464
556.00,0.0460
555.00,0.0454
554.00,0.0445
553.00,0.0435
552.00,0.0429
551.00,0.0423
550.00,0.0418
549.00,0.0414
548.00,0.0415
547.00,0.0418
546.00,0.0418
545.00,0.0416
544.00,0.0414
543.00,0.0411
542.00,0.0408
541.00,0.0406
540.00,0.0406
539.00,0.0405
538.00,0.0402
537.00,0.0400
536.00,0.0397
535.00,0.0394
534.00,0.0387
533.00,0.0381
532.00,0.0379
531.00,0.0377
530.00,0.0372
529.00,0.0365
528.00,0.0361
527.00,0.0360
526.00,0.0361
525.00,0.0366
524.00,0.0374
523.00,0.0380
522.00,0.0380
521.00,0.0374
520.00,0.0370
519.00,0.0365
518.00,0.0359
517.00,0.0352
516.00,0.0345
515.00,0.0335
514.00,0.0321
513.00,0.0308
512.00,0.0300
511.00,0.0296
510.00,0.0291
509.00,0.0282
508.00,0.0271
507.00,0.0262
506.00,0.0255
505.00,0.0251
504.00,0.0248
503.00,0.0243
502.00,0.0233
501.00,0.0224
500.00,0.0220
499.00,0.0220
498.00,0.0221
497.00,0.0224
496.00,0.0227
495.00,0.0226
494.00,0.0220
493.00,0.0211
492.00,0.0208
491.00,0.0209
490.00,0.0209
489.00,0.0205
488.00,0.0201
487.00,0.0199
486.00,0.0199
485.00,0.0202
484.00,0.0209
483.00,0.0215
482.00,0.0216
481.00,0.0218
480.00,0.0224
479.00,0.0228
478.00,0.0224
477.00,0.0212
476.00,0.0201
475.00,0.0192
474.00,0.0184
473.00,0.0180
472.00,0.0182
471.00,0.0186
470.00,0.0183
469.00,0.0176
468.00,0.0170
467.00,0.0165
466.00,0.0157
465.00,0.0149
464.00,0.0147
463.00,0.0149
462.00,0.0152
461.00,0.0152
460.00,0.0152
459.00,0.0149
458.00,0.0142
457.00,0.0131
456.00,0.0119
455.00,0.0103
454.00,0.0082
453.00,0.0068
452.00,0.0065
451.00,0.0066
450.00,0.0065
