Created as New Dataset,Sample 006 By Administrator Date Monday, June 09 2025
cm-1,A
4000.00,0.0051
3999.00,0.0051
3998.00,0.0051
3997.00,0.0051
3996.00,0.0051
3995.00,0.0050
3994.00,0.0050
3993.00,0.0050
3992.00,0.0050
3991.00,0.0050
3990.00,0.0050
3989.00,0.0051
3988.00,0.0051
3987.00,0.0052
3986.00,0.0052
3985.00,0.0052
3984.00,0.0051
3983.00,0.0051
3982.00,0.0051
3981.00,0.0051
3980.00,0.0051
3979.00,0.0052
3978.00,0.0052
3977.00,0.0053
3976.00,0.0053
3975.00,0.0053
3974.00,0.0052
3973.00,0.0052
3972.00,0.0052
3971.00,0.0052
3970.00,0.0051
3969.00,0.0051
3968.00,0.0051
3967.00,0.0052
3966.00,0.0052
3965.00,0.0052
3964.00,0.0052
3963.00,0.0053
3962.00,0.0053
3961.00,0.0053
3960.00,0.0053
3959.00,0.0053
3958.00,0.0053
3957.00,0.0053
3956.00,0.0053
3955.00,0.0053
3954.00,0.0053
3953.00,0.0053
3952.00,0.0054
3951.00,0.0054
3950.00,0.0054
3949.00,0.0055
3948.00,0.0055
3947.00,0.0055
3946.00,0.0056
3945.00,0.0056
3944.00,0.0055
3943.00,0.0054
3942.00,0.0053
3941.00,0.0052
3940.00,0.0052
3939.00,0.0053
3938.00,0.0053
3937.00,0.0053
3936.00,0.0054
3935.00,0.0055
3934.00,0.0056
3933.00,0.0057
3932.00,0.0056
3931.00,0.0056
3930.00,0.0055
3929.00,0.0055
3928.00,0.0055
3927.00,0.0055
3926.00,0.0055
3925.00,0.0054
3924.00,0.0054
3923.00,0.0054
3922.00,0.0055
3921.00,0.0057
3920.00,0.0058
3919.00,0.0058
3918.00,0.0058
3917.00,0.0057
3916.00,0.0056
3915.00,0.0055
3914.00,0.0054
3913.00,0.0053
3912.00,0.0052
3911.00,0.0052
3910.00,0.0051
3909.00,0.0052
3908.00,0.0053
3907.00,0.0054
3906.00,0.0056
3905.00,0.0058
3904.00,0.0061
3903.00,0.0063
3902.00,0.0065
3901.00,0.0066
3900.00,0.0065
3899.00,0.0063
3898.00,0.0061
3897.00,0.0059
3896.00,0.0058
3895.00,0.0058
3894.00,0.0058
3893.00,0.0057
3892.00,0.0056
3891.00,0.0056
3890.00,0.0056
3889.00,0.0057
3888.00,0.0059
3887.00,0.0061
3886.00,0.0061
3885.00,0.0060
3884.00,0.0060
3883.00,0.0060
3882.00,0.0060
3881.00,0.0060
3880.00,0.0058
3879.00,0.0057
3878.00,0.0057
3877.00,0.0058
3876.00,0.0058
3875.00,0.0058
3874.00,0.0058
3873.00,0.0058
3872.00,0.0059
3871.00,0.0061
3870.00,0.0061
3869.00,0.0061
3868.00,0.0060
3867.00,0.0061
3866.00,0.0063
3865.00,0.0063
3864.00,0.0061
3863.00,0.0060
3862.00,0.0059
3861.00,0.0059
3860.00,0.0059
3859.00,0.0058
3858.00,0.0056
3857.00,0.0055
3856.00,0.0055
3855.00,0.0057
3854.00,0.0059
3853.00,0.0061
3852.00,0.0062
3851.00,0.0062
3850.00,0.0062
3849.00,0.0061
3848.00,0.0061
3847.00,0.0060
3846.00,0.0059
3845.00,0.0059
3844.00,0.0059
3843.00,0.0059
3842.00,0.0060
3841.00,0.0061
3840.00,0.0061
3839.00,0.0062
3838.00,0.0062
3837.00,0.0062
3836.00,0.0062
3835.00,0.0062
3834.00,0.0062
3833.00,0.0062
3832.00,0.0061
3831.00,0.0061
3830.00,0.0060
3829.00,0.0059
3828.00,0.0059
3827.00,0.0058
3826.00,0.0056
3825.00,0.0056
3824.00,0.0057
3823.00,0.0059
3822.00,0.0062
3821.00,0.0062
3820.00,0.0062
3819.00,0.0062
3818.00,0.0063
3817.00,0.0063
3816.00,0.0062
3815.00,0.0060
3814.00,0.0058
3813.00,0.0057
3812.00,0.0056
3811.00,0.0056
3810.00,0.0055
3809.00,0.0055
3808.00,0.0055
3807.00,0.0056
3806.00,0.0057
3805.00,0.0058
3804.00,0.0060
3803.00,0.0062
3802.00,0.0063
3801.00,0.0062
3800.00,0.0062
3799.00,0.0062
3798.00,0.0062
3797.00,0.0061
3796.00,0.0060
3795.00,0.0058
3794.00,0.0057
3793.00,0.0056
3792.00,0.0055
3791.00,0.0055
3790.00,0.0054
3789.00,0.0054
3788.00,0.0054
3787.00,0.0054
3786.00,0.0055
3785.00,0.0055
3784.00,0.0055
3783.00,0.0056
3782.00,0.0057
3781.00,0.0058
3780.00,0.0058
3779.00,0.0057
3778.00,0.0056
3777.00,0.0056
3776.00,0.0056
3775.00,0.0056
3774.00,0.0056
3773.00,0.0057
3772.00,0.0057
3771.00,0.0059
3770.00,0.0059
3769.00,0.0060
3768.00,0.0062
3767.00,0.0063
3766.00,0.0063
3765.00,0.0063
3764.00,0.0062
3763.00,0.0063
3762.00,0.0064
3761.00,0.0065
3760.00,0.0066
3759.00,0.0065
3758.00,0.0065
3757.00,0.0066
3756.00,0.0067
3755.00,0.0068
3754.00,0.0070
3753.00,0.0072
3752.00,0.0073
3751.00,0.0075
3750.00,0.0077
3749.00,0.0079
3748.00,0.0081
3747.00,0.0081
3746.00,0.0082
3745.00,0.0083
3744.00,0.0082
3743.00,0.0081
3742.00,0.0079
3741.00,0.0079
3740.00,0.0079
3739.00,0.0080
3738.00,0.0083
3737.00,0.0085
3736.00,0.0085
3735.00,0.0084
3734.00,0.0082
3733.00,0.0082
3732.00,0.0081
3731.00,0.0080
3730.00,0.0080
3729.00,0.0079
3728.00,0.0080
3727.00,0.0080
3726.00,0.0079
3725.00,0.0078
3724.00,0.0078
3723.00,0.0078
3722.00,0.0078
3721.00,0.0078
3720.00,0.0078
3719.00,0.0077
3718.00,0.0077
3717.00,0.0077
3716.00,0.0078
3715.00,0.0080
3714.00,0.0082
3713.00,0.0084
3712.00,0.0086
3711.00,0.0087
3710.00,0.0088
3709.00,0.0089
3708.00,0.0090
3707.00,0.0090
3706.00,0.0090
3705.00,0.0091
3704.00,0.0091
3703.00,0.0092
3702.00,0.0092
3701.00,0.0092
3700.00,0.0093
3699.00,0.0094
3698.00,0.0095
3697.00,0.0097
3696.00,0.0098
3695.00,0.0100
3694.00,0.0103
3693.00,0.0105
3692.00,0.0107
3691.00,0.0109
3690.00,0.0111
3689.00,0.0115
3688.00,0.0119
3687.00,0.0122
3686.00,0.0125
3685.00,0.0126
3684.00,0.0128
3683.00,0.0129
3682.00,0.0131
3681.00,0.0133
3680.00,0.0135
3679.00,0.0138
3678.00,0.0143
3677.00,0.0149
3676.00,0.0156
3675.00,0.0162
3674.00,0.0167
3673.00,0.0173
3672.00,0.0179
3671.00,0.0183
3670.00,0.0186
3669.00,0.0188
3668.00,0.0190
3667.00,0.0193
3666.00,0.0196
3665.00,0.0199
3664.00,0.0202
3663.00,0.0205
3662.00,0.0209
3661.00,0.0213
3660.00,0.0217
3659.00,0.0222
3658.00,0.0229
3657.00,0.0237
3656.00,0.0245
3655.00,0.0253
3654.00,0.0259
3653.00,0.0266
3652.00,0.0274
3651.00,0.0283
3650.00,0.0292
3649.00,0.0303
3648.00,0.0313
3647.00,0.0322
3646.00,0.0328
3645.00,0.0333
3644.00,0.0337
3643.00,0.0340
3642.00,0.0344
3641.00,0.0349
3640.00,0.0354
3639.00,0.0360
3638.00,0.0367
3637.00,0.0374
3636.00,0.0382
3635.00,0.0390
3634.00,0.0397
3633.00,0.0404
3632.00,0.0411
3631.00,0.0420
3630.00,0.0432
3629.00,0.0444
3628.00,0.0456
3627.00,0.0466
3626.00,0.0475
3625.00,0.0481
3624.00,0.0487
3623.00,0.0492
3622.00,0.0497
3621.00,0.0503
3620.00,0.0511
3619.00,0.0520
3618.00,0.0530
3617.00,0.0540
3616.00,0.0550
3615.00,0.0558
3614.00,0.0565
3613.00,0.0572
3612.00,0.0579
3611.00,0.0588
3610.00,0.0597
3609.00,0.0605
3608.00,0.0613
3607.00,0.0620
3606.00,0.0626
3605.00,0.0633
3604.00,0.0639
3603.00,0.0646
3602.00,0.0652
3601.00,0.0659
3600.00,0.0666
3599.00,0.0675
3598.00,0.0684
3597.00,0.0693
3596.00,0.0702
3595.00,0.0710
3594.00,0.0719
3593.00,0.0726
3592.00,0.0734
3591.00,0.0742
3590.00,0.0751
3589.00,0.0760
3588.00,0.0770
3587.00,0.0781
3586.00,0.0791
3585.00,0.0800
3584.00,0.0808
3583.00,0.0815
3582.00,0.0821
3581.00,0.0827
3580.00,0.0833
3579.00,0.0840
3578.00,0.0848
3577.00,0.0856
3576.00,0.0865
3575.00,0.0874
3574.00,0.0884
3573.00,0.0893
3572.00,0.0902
3571.00,0.0912
3570.00,0.0922
3569.00,0.0933
3568.00,0.0944
3567.00,0.0956
3566.00,0.0968
3565.00,0.0980
3564.00,0.0990
3563.00,0.1000
3562.00,0.1008
3561.00,0.1016
3560.00,0.1023
3559.00,0.1031
3558.00,0.1040
3557.00,0.1049
3556.00,0.1058
3555.00,0.1067
3554.00,0.1077
3553.00,0.1088
3552.00,0.1098
3551.00,0.1109
3550.00,0.1120
3549.00,0.1131
3548.00,0.1142
3547.00,0.1152
3546.00,0.1161
3545.00,0.1171
3544.00,0.1181
3543.00,0.1189
3542.00,0.1198
3541.00,0.1205
3540.00,0.1212
3539.00,0.1220
3538.00,0.1228
3537.00,0.1236
3536.00,0.1244
3535.00,0.1252
3534.00,0.1259
3533.00,0.1267
3532.00,0.1274
3531.00,0.1281
3530.00,0.1289
3529.00,0.1297
3528.00,0.1305
3527.00,0.1314
3526.00,0.1323
3525.00,0.1332
3524.00,0.1339
3523.00,0.1346
3522.00,0.1352
3521.00,0.1358
3520.00,0.1364
3519.00,0.1371
3518.00,0.1377
3517.00,0.1384
3516.00,0.1391
3515.00,0.1398
3514.00,0.1406
3513.00,0.1413
3512.00,0.1419
3511.00,0.1426
3510.00,0.1433
3509.00,0.1441
3508.00,0.1450
3507.00,0.1458
3506.00,0.1466
3505.00,0.1474
3504.00,0.1482
3503.00,0.1490
3502.00,0.1498
3501.00,0.1506
3500.00,0.1513
3499.00,0.1521
3498.00,0.1528
3497.00,0.1535
3496.00,0.1542
3495.00,0.1550
3494.00,0.1558
3493.00,0.1565
3492.00,0.1573
3491.00,0.1580
3490.00,0.1588
3489.00,0.1596
3488.00,0.1604
3487.00,0.1611
3486.00,0.1619
3485.00,0.1627
3484.00,0.1635
3483.00,0.1643
3482.00,0.1651
3481.00,0.1659
3480.00,0.1668
3479.00,0.1675
3478.00,0.1682
3477.00,0.1689
3476.00,0.1695
3475.00,0.1703
3474.00,0.1711
3473.00,0.1719
3472.00,0.1728
3471.00,0.1737
3470.00,0.1745
3469.00,0.1753
3468.00,0.1761
3467.00,0.1768
3466.00,0.1776
3465.00,0.1783
3464.00,0.1790
3463.00,0.1797
3462.00,0.1804
3461.00,0.1812
3460.00,0.1820
3459.00,0.1828
3458.00,0.1836
3457.00,0.1844
3456.00,0.1852
3455.00,0.1859
3454.00,0.1866
3453.00,0.1873
3452.00,0.1881
3451.00,0.1888
3450.00,0.1895
3449.00,0.1903
3448.00,0.1910
3447.00,0.1918
3446.00,0.1926
3445.00,0.1934
3444.00,0.1943
3443.00,0.1951
3442.00,0.1959
3441.00,0.1967
3440.00,0.1975
3439.00,0.1984
3438.00,0.1992
3437.00,0.2001
3436.00,0.2008
3435.00,0.2015
3434.00,0.2022
3433.00,0.2029
3432.00,0.2037
3431.00,0.2045
3430.00,0.2053
3429.00,0.2062
3428.00,0.2069
3427.00,0.2077
3426.00,0.2085
3425.00,0.2092
3424.00,0.2100
3423.00,0.2108
3422.00,0.2116
3421.00,0.2124
3420.00,0.2132
3419.00,0.2141
3418.00,0.2149
3417.00,0.2157
3416.00,0.2165
3415.00,0.2173
3414.00,0.2181
3413.00,0.2189
3412.00,0.2196
3411.00,0.2203
3410.00,0.2210
3409.00,0.2217
3408.00,0.2223
3407.00,0.2230
3406.00,0.2236
3405.00,0.2243
3404.00,0.2250
3403.00,0.2256
3402.00,0.2262
3401.00,0.2266
3400.00,0.2270
3399.00,0.2273
3398.00,0.2276
3397.00,0.2280
3396.00,0.2285
3395.00,0.2289
3394.00,0.2293
3393.00,0.2297
3392.00,0.2300
3391.00,0.2302
3390.00,0.2304
3389.00,0.2305
3388.00,0.2306
3387.00,0.2307
3386.00,0.2308
3385.00,0.2310
3384.00,0.2312
3383.00,0.2314
3382.00,0.2316
3381.00,0.2318
3380.00,0.2320
3379.00,0.2321
3378.00,0.2322
3377.00,0.2324
3376.00,0.2324
3375.00,0.2325
3374.00,0.2325
3373.00,0.2326
3372.00,0.2328
3371.00,0.2330
3370.00,0.2332
3369.00,0.2333
3368.00,0.2333
3367.00,0.2332
3366.00,0.2332
3365.00,0.2331
3364.00,0.2331
3363.00,0.2332
3362.00,0.2332
3361.00,0.2333
3360.00,0.2333
3359.00,0.2333
3358.00,0.2332
3357.00,0.2332
3356.00,0.2331
3355.00,0.2331
3354.00,0.2331
3353.00,0.2332
3352.00,0.2332
3351.00,0.2332
3350.00,0.2331
3349.00,0.2330
3348.00,0.2329
3347.00,0.2328
3346.00,0.2327
3345.00,0.2327
3344.00,0.2326
3343.00,0.2326
3342.00,0.2326
3341.00,0.2325
3340.00,0.2324
3339.00,0.2322
3338.00,0.2321
3337.00,0.2319
3336.00,0.2318
3335.00,0.2317
3334.00,0.2316
3333.00,0.2315
3332.00,0.2313
3331.00,0.2312
3330.00,0.2310
3329.00,0.2308
3328.00,0.2307
3327.00,0.2306
3326.00,0.2305
3325.00,0.2305
3324.00,0.2303
3323.00,0.2302
3322.00,0.2301
3321.00,0.2300
3320.00,0.2298
3319.00,0.2297
3318.00,0.2296
3317.00,0.2294
3316.00,0.2293
3315.00,0.2291
3314.00,0.2291
3313.00,0.2290
3312.00,0.2289
3311.00,0.2288
3310.00,0.2287
3309.00,0.2286
3308.00,0.2285
3307.00,0.2283
3306.00,0.2282
3305.00,0.2282
3304.00,0.2281
3303.00,0.2280
3302.00,0.2279
3301.00,0.2278
3300.00,0.2277
3299.00,0.2275
3298.00,0.2274
3297.00,0.2273
3296.00,0.2271
3295.00,0.2270
3294.00,0.2269
3293.00,0.2268
3292.00,0.2267
3291.00,0.2266
3290.00,0.2265
3289.00,0.2264
3288.00,0.2263
3287.00,0.2261
3286.00,0.2260
3285.00,0.2259
3284.00,0.2257
3283.00,0.2255
3282.00,0.2252
3281.00,0.2250
3280.00,0.2248
3279.00,0.2245
3278.00,0.2243
3277.00,0.2241
3276.00,0.2239
3275.00,0.2236
3274.00,0.2233
3273.00,0.2230
3272.00,0.2227
3271.00,0.2224
3270.00,0.2221
3269.00,0.2217
3268.00,0.2214
3267.00,0.2210
3266.00,0.2207
3265.00,0.2203
3264.00,0.2199
3263.00,0.2195
3262.00,0.2190
3261.00,0.2185
3260.00,0.2181
3259.00,0.2176
3258.00,0.2171
3257.00,0.2166
3256.00,0.2162
3255.00,0.2157
3254.00,0.2153
3253.00,0.2148
3252.00,0.2144
3251.00,0.2139
3250.00,0.2134
3249.00,0.2129
3248.00,0.2124
3247.00,0.2119
3246.00,0.2113
3245.00,0.2108
3244.00,0.2102
3243.00,0.2097
3242.00,0.2092
3241.00,0.2087
3240.00,0.2081
3239.00,0.2076
3238.00,0.2069
3237.00,0.2063
3236.00,0.2057
3235.00,0.2051
3234.00,0.2045
3233.00,0.2040
3232.00,0.2034
3231.00,0.2028
3230.00,0.2021
3229.00,0.2015
3228.00,0.2009
3227.00,0.2003
3226.00,0.1997
3225.00,0.1990
3224.00,0.1984
3223.00,0.1978
3222.00,0.1972
3221.00,0.1965
3220.00,0.1958
3219.00,0.1952
3218.00,0.1945
3217.00,0.1938
3216.00,0.1932
3215.00,0.1925
3214.00,0.1918
3213.00,0.1911
3212.00,0.1904
3211.00,0.1897
3210.00,0.1889
3209.00,0.1882
3208.00,0.1875
3207.00,0.1867
3206.00,0.1860
3205.00,0.1853
3204.00,0.1845
3203.00,0.1837
3202.00,0.1829
3201.00,0.1821
3200.00,0.1814
3199.00,0.1806
3198.00,0.1799
3197.00,0.1791
3196.00,0.1783
3195.00,0.1775
3194.00,0.1768
3193.00,0.1760
3192.00,0.1752
3191.00,0.1743
3190.00,0.1734
3189.00,0.1726
3188.00,0.1717
3187.00,0.1709
3186.00,0.1700
3185.00,0.1692
3184.00,0.1684
3183.00,0.1675
3182.00,0.1667
3181.00,0.1658
3180.00,0.1649
3179.00,0.1641
3178.00,0.1632
3177.00,0.1623
3176.00,0.1614
3175.00,0.1605
3174.00,0.1596
3173.00,0.1587
3172.00,0.1578
3171.00,0.1569
3170.00,0.1561
3169.00,0.1553
3168.00,0.1544
3167.00,0.1535
3166.00,0.1525
3165.00,0.1516
3164.00,0.1507
3163.00,0.1498
3162.00,0.1489
3161.00,0.1480
3160.00,0.1471
3159.00,0.1462
3158.00,0.1454
3157.00,0.1445
3156.00,0.1437
3155.00,0.1428
3154.00,0.1420
3153.00,0.1412
3152.00,0.1403
3151.00,0.1395
3150.00,0.1386
3149.00,0.1377
3148.00,0.1369
3147.00,0.1360
3146.00,0.1352
3145.00,0.1344
3144.00,0.1336
3143.00,0.1327
3142.00,0.1319
3141.00,0.1310
3140.00,0.1302
3139.00,0.1295
3138.00,0.1287
3137.00,0.1279
3136.00,0.1271
3135.00,0.1263
3134.00,0.1255
3133.00,0.1248
3132.00,0.1241
3131.00,0.1234
3130.00,0.1226
3129.00,0.1219
3128.00,0.1212
3127.00,0.1204
3126.00,0.1197
3125.00,0.1190
3124.00,0.1183
3123.00,0.1176
3122.00,0.1169
3121.00,0.1162
3120.00,0.1155
3119.00,0.1148
3118.00,0.1142
3117.00,0.1135
3116.00,0.1129
3115.00,0.1122
3114.00,0.1117
3113.00,0.1111
3112.00,0.1105
3111.00,0.1099
3110.00,0.1093
3109.00,0.1087
3108.00,0.1081
3107.00,0.1075
3106.00,0.1070
3105.00,0.1065
3104.00,0.1060
3103.00,0.1054
3102.00,0.1049
3101.00,0.1043
3100.00,0.1038
3099.00,0.1033
3098.00,0.1029
3097.00,0.1024
3096.00,0.1019
3095.00,0.1014
3094.00,0.1009
3093.00,0.1003
3092.00,0.0997
3091.00,0.0992
3090.00,0.0987
3089.00,0.0982
3088.00,0.0977
3087.00,0.0972
3086.00,0.0968
3085.00,0.0963
3084.00,0.0959
3083.00,0.0954
3082.00,0.0950
3081.00,0.0946
3080.00,0.0941
3079.00,0.0937
3078.00,0.0933
3077.00,0.0929
3076.00,0.0925
3075.00,0.0920
3074.00,0.0915
3073.00,0.0910
3072.00,0.0905
3071.00,0.0900
3070.00,0.0895
3069.00,0.0891
3068.00,0.0886
3067.00,0.0881
3066.00,0.0877
3065.00,0.0873
3064.00,0.0868
3063.00,0.0863
3062.00,0.0858
3061.00,0.0852
3060.00,0.0847
3059.00,0.0841
3058.00,0.0836
3057.00,0.0830
3056.00,0.0825
3055.00,0.0820
3054.00,0.0814
3053.00,0.0809
3052.00,0.0804
3051.00,0.0799
3050.00,0.0794
3049.00,0.0789
3048.00,0.0783
3047.00,0.0778
3046.00,0.0772
3045.00,0.0767
3044.00,0.0762
3043.00,0.0757
3042.00,0.0752
3041.00,0.0747
3040.00,0.0742
3039.00,0.0737
3038.00,0.0732
3037.00,0.0727
3036.00,0.0722
3035.00,0.0717
3034.00,0.0712
3033.00,0.0708
3032.00,0.0704
3031.00,0.0699
3030.00,0.0695
3029.00,0.0690
3028.00,0.0686
3027.00,0.0681
3026.00,0.0677
3025.00,0.0672
3024.00,0.0667
3023.00,0.0663
3022.00,0.0659
3021.00,0.0655
3020.00,0.0651
3019.00,0.0647
3018.00,0.0643
3017.00,0.0640
3016.00,0.0636
3015.00,0.0633
3014.00,0.0629
3013.00,0.0625
3012.00,0.0622
3011.00,0.0619
3010.00,0.0616
3009.00,0.0613
3008.00,0.0610
3007.00,0.0607
3006.00,0.0604
3005.00,0.0601
3004.00,0.0598
3003.00,0.0595
3002.00,0.0592
3001.00,0.0590
3000.00,0.0587
2999.00,0.0584
2998.00,0.0582
2997.00,0.0580
2996.00,0.0579
2995.00,0.0577
2994.00,0.0576
2993.00,0.0575
2992.00,0.0574
2991.00,0.0574
2990.00,0.0573
2989.00,0.0573
2988.00,0.0573
2987.00,0.0573
2986.00,0.0574
2985.00,0.0574
2984.00,0.0574
2983.00,0.0575
2982.00,0.0576
2981.00,0.0577
2980.00,0.0578
2979.00,0.0579
2978.00,0.0580
2977.00,0.0581
2976.00,0.0582
2975.00,0.0584
2974.00,0.0585
2973.00,0.0587
2972.00,0.0589
2971.00,0.0590
2970.00,0.0591
2969.00,0.0592
2968.00,0.0593
2967.00,0.0594
2966.00,0.0595
2965.00,0.0596
2964.00,0.0597
2963.00,0.0597
2962.00,0.0597
2961.00,0.0597
2960.00,0.0596
2959.00,0.0595
2958.00,0.0593
2957.00,0.0591
2956.00,0.0589
2955.00,0.0586
2954.00,0.0583
2953.00,0.0580
2952.00,0.0578
2951.00,0.0576
2950.00,0.0573
2949.00,0.0571
2948.00,0.0569
2947.00,0.0568
2946.00,0.0567
2945.00,0.0567
2944.00,0.0568
2943.00,0.0569
2942.00,0.0570
2941.00,0.0571
2940.00,0.0573
2939.00,0.0574
2938.00,0.0575
2937.00,0.0576
2936.00,0.0577
2935.00,0.0577
2934.00,0.0578
2933.00,0.0578
2932.00,0.0578
2931.00,0.0578
2930.00,0.0577
2929.00,0.0577
2928.00,0.0577
2927.00,0.0576
2926.00,0.0575
2925.00,0.0573
2924.00,0.0571
2923.00,0.0569
2922.00,0.0566
2921.00,0.0562
2920.00,0.0558
2919.00,0.0553
2918.00,0.0547
2917.00,0.0542
2916.00,0.0535
2915.00,0.0528
2914.00,0.0522
2913.00,0.0515
2912.00,0.0509
2911.00,0.0504
2910.00,0.0498
2909.00,0.0493
2908.00,0.0488
2907.00,0.0484
2906.00,0.0480
2905.00,0.0476
2904.00,0.0472
2903.00,0.0468
2902.00,0.0464
2901.00,0.0461
2900.00,0.0457
2899.00,0.0453
2898.00,0.0450
2897.00,0.0446
2896.00,0.0443
2895.00,0.0440
2894.00,0.0437
2893.00,0.0434
2892.00,0.0432
2891.00,0.0429
2890.00,0.0426
2889.00,0.0424
2888.00,0.0421
2887.00,0.0419
2886.00,0.0417
2885.00,0.0415
2884.00,0.0414
2883.00,0.0412
2882.00,0.0411
2881.00,0.0410
2880.00,0.0409
2879.00,0.0408
2878.00,0.0406
2877.00,0.0405
2876.00,0.0403
2875.00,0.0401
2874.00,0.0398
2873.00,0.0396
2872.00,0.0394
2871.00,0.0391
2870.00,0.0389
2869.00,0.0385
2868.00,0.0382
2867.00,0.0378
2866.00,0.0375
2865.00,0.0372
2864.00,0.0369
2863.00,0.0367
2862.00,0.0366
2861.00,0.0365
2860.00,0.0364
2859.00,0.0363
2858.00,0.0363
2857.00,0.0363
2856.00,0.0362
2855.00,0.0362
2854.00,0.0361
2853.00,0.0360
2852.00,0.0358
2851.00,0.0355
2850.00,0.0351
2849.00,0.0347
2848.00,0.0341
2847.00,0.0336
2846.00,0.0330
2845.00,0.0324
2844.00,0.0318
2843.00,0.0313
2842.00,0.0308
2841.00,0.0304
2840.00,0.0300
2839.00,0.0297
2838.00,0.0294
2837.00,0.0291
2836.00,0.0289
2835.00,0.0287
2834.00,0.0285
2833.00,0.0283
2832.00,0.0281
2831.00,0.0279
2830.00,0.0277
2829.00,0.0276
2828.00,0.0274
2827.00,0.0272
2826.00,0.0271
2825.00,0.0269
2824.00,0.0267
2823.00,0.0266
2822.00,0.0264
2821.00,0.0263
2820.00,0.0261
2819.00,0.0260
2818.00,0.0258
2817.00,0.0257
2816.00,0.0255
2815.00,0.0254
2814.00,0.0252
2813.00,0.0251
2812.00,0.0249
2811.00,0.0248
2810.00,0.0246
2809.00,0.0245
2808.00,0.0244
2807.00,0.0242
2806.00,0.0241
2805.00,0.0239
2804.00,0.0238
2803.00,0.0236
2802.00,0.0235
2801.00,0.0234
2800.00,0.0232
2799.00,0.0231
2798.00,0.0230
2797.00,0.0229
2796.00,0.0228
2795.00,0.0227
2794.00,0.0225
2793.00,0.0224
2792.00,0.0222
2791.00,0.0221
2790.00,0.0220
2789.00,0.0220
2788.00,0.0219
2787.00,0.0218
2786.00,0.0217
2785.00,0.0216
2784.00,0.0215
2783.00,0.0214
2782.00,0.0213
2781.00,0.0212
2780.00,0.0211
2779.00,0.0210
2778.00,0.0208
2777.00,0.0207
2776.00,0.0206
2775.00,0.0205
2774.00,0.0204
2773.00,0.0203
2772.00,0.0202
2771.00,0.0201
2770.00,0.0201
2769.00,0.0200
2768.00,0.0199
2767.00,0.0199
2766.00,0.0198
2765.00,0.0197
2764.00,0.0196
2763.00,0.0195
2762.00,0.0194
2761.00,0.0194
2760.00,0.0193
2759.00,0.0192
2758.00,0.0191
2757.00,0.0190
2756.00,0.0189
2755.00,0.0188
2754.00,0.0187
2753.00,0.0187
2752.00,0.0186
2751.00,0.0186
2750.00,0.0185
2749.00,0.0184
2748.00,0.0184
2747.00,0.0183
2746.00,0.0182
2745.00,0.0181
2744.00,0.0180
2743.00,0.0179
2742.00,0.0179
2741.00,0.0178
2740.00,0.0177
2739.00,0.0176
2738.00,0.0176
2737.00,0.0175
2736.00,0.0174
2735.00,0.0174
2734.00,0.0173
2733.00,0.0173
2732.00,0.0172
2731.00,0.0171
2730.00,0.0171
2729.00,0.0170
2728.00,0.0169
2727.00,0.0168
2726.00,0.0167
2725.00,0.0167
2724.00,0.0166
2723.00,0.0165
2722.00,0.0164
2721.00,0.0164
2720.00,0.0163
2719.00,0.0162
2718.00,0.0162
2717.00,0.0161
2716.00,0.0161
2715.00,0.0160
2714.00,0.0159
2713.00,0.0159
2712.00,0.0158
2711.00,0.0157
2710.00,0.0156
2709.00,0.0156
2708.00,0.0155
2707.00,0.0155
2706.00,0.0154
2705.00,0.0154
2704.00,0.0154
2703.00,0.0153
2702.00,0.0153
2701.00,0.0152
2700.00,0.0151
2699.00,0.0151
2698.00,0.0150
2697.00,0.0150
2696.00,0.0149
2695.00,0.0149
2694.00,0.0148
2693.00,0.0148
2692.00,0.0147
2691.00,0.0147
2690.00,0.0146
2689.00,0.0146
2688.00,0.0145
2687.00,0.0145
2686.00,0.0144
2685.00,0.0144
2684.00,0.0144
2683.00,0.0143
2682.00,0.0143
2681.00,0.0142
2680.00,0.0142
2679.00,0.0141
2678.00,0.0141
2677.00,0.0140
2676.00,0.0140
2675.00,0.0139
2674.00,0.0139
2673.00,0.0138
2672.00,0.0138
2671.00,0.0137
2670.00,0.0137
2669.00,0.0137
2668.00,0.0137
2667.00,0.0137
2666.00,0.0137
2665.00,0.0136
2664.00,0.0136
2663.00,0.0136
2662.00,0.0137
2661.00,0.0137
2660.00,0.0137
2659.00,0.0137
2658.00,0.0137
2657.00,0.0136
2656.00,0.0136
2655.00,0.0135
2654.00,0.0135
2653.00,0.0134
2652.00,0.0134
2651.00,0.0134
2650.00,0.0133
2649.00,0.0133
2648.00,0.0133
2647.00,0.0132
2646.00,0.0131
2645.00,0.0131
2644.00,0.0131
2643.00,0.0130
2642.00,0.0130
2641.00,0.0129
2640.00,0.0129
2639.00,0.0128
2638.00,0.0127
2637.00,0.0127
2636.00,0.0126
2635.00,0.0126
2634.00,0.0125
2633.00,0.0124
2632.00,0.0123
2631.00,0.0123
2630.00,0.0122
2629.00,0.0122
2628.00,0.0122
2627.00,0.0122
2626.00,0.0121
2625.00,0.0121
2624.00,0.0120
2623.00,0.0120
2622.00,0.0119
2621.00,0.0119
2620.00,0.0118
2619.00,0.0118
2618.00,0.0118
2617.00,0.0117
2616.00,0.0117
2615.00,0.0116
2614.00,0.0115
2613.00,0.0115
2612.00,0.0115
2611.00,0.0114
2610.00,0.0113
2609.00,0.0112
2608.00,0.0112
2607.00,0.0111
2606.00,0.0111
2605.00,0.0111
2604.00,0.0111
2603.00,0.0111
2602.00,0.0111
2601.00,0.0110
2600.00,0.0109
2599.00,0.0109
2598.00,0.0109
2597.00,0.0108
2596.00,0.0108
2595.00,0.0107
2594.00,0.0107
2593.00,0.0107
2592.00,0.0106
2591.00,0.0105
2590.00,0.0104
2589.00,0.0104
2588.00,0.0103
2587.00,0.0103
2586.00,0.0103
2585.00,0.0102
2584.00,0.0102
2583.00,0.0102
2582.00,0.0102
2581.00,0.0102
2580.00,0.0102
2579.00,0.0103
2578.00,0.0102
2577.00,0.0102
2576.00,0.0102
2575.00,0.0102
2574.00,0.0101
2573.00,0.0101
2572.00,0.0100
2571.00,0.0100
2570.00,0.0099
2569.00,0.0098
2568.00,0.0098
2567.00,0.0097
2566.00,0.0097
2565.00,0.0097
2564.00,0.0096
2563.00,0.0096
2562.00,0.0096
2561.00,0.0096
2560.00,0.0096
2559.00,0.0096
2558.00,0.0096
2557.00,0.0096
2556.00,0.0095
2555.00,0.0095
2554.00,0.0095
2553.00,0.0096
2552.00,0.0096
2551.00,0.0096
2550.00,0.0096
2549.00,0.0095
2548.00,0.0095
2547.00,0.0095
2546.00,0.0094
2545.00,0.0094
2544.00,0.0094
2543.00,0.0094
2542.00,0.0093
2541.00,0.0093
2540.00,0.0093
2539.00,0.0093
2538.00,0.0092
2537.00,0.0092
2536.00,0.0091
2535.00,0.0091
2534.00,0.0092
2533.00,0.0092
2532.00,0.0092
2531.00,0.0092
2530.00,0.0091
2529.00,0.0091
2528.00,0.0092
2527.00,0.0092
2526.00,0.0093
2525.00,0.0093
2524.00,0.0092
2523.00,0.0092
2522.00,0.0091
2521.00,0.0091
2520.00,0.0091
2519.00,0.0091
2518.00,0.0091
2517.00,0.0091
2516.00,0.0092
2515.00,0.0092
2514.00,0.0092
2513.00,0.0091
2512.00,0.0091
2511.00,0.0090
2510.00,0.0090
2509.00,0.0090
2508.00,0.0090
2507.00,0.0090
2506.00,0.0090
2505.00,0.0090
2504.00,0.0090
2503.00,0.0090
2502.00,0.0090
2501.00,0.0090
2500.00,0.0089
2499.00,0.0089
2498.00,0.0089
2497.00,0.0089
2496.00,0.0089
2495.00,0.0090
2494.00,0.0090
2493.00,0.0089
2492.00,0.0089
2491.00,0.0089
2490.00,0.0089
2489.00,0.0089
2488.00,0.0089
2487.00,0.0089
2486.00,0.0088
2485.00,0.0088
2484.00,0.0088
2483.00,0.0088
2482.00,0.0088
2481.00,0.0088
2480.00,0.0087
2479.00,0.0087
2478.00,0.0086
2477.00,0.0086
2476.00,0.0086
2475.00,0.0086
2474.00,0.0087
2473.00,0.0087
2472.00,0.0087
2471.00,0.0086
2470.00,0.0086
2469.00,0.0086
2468.00,0.0086
2467.00,0.0086
2466.00,0.0086
2465.00,0.0086
2464.00,0.0086
2463.00,0.0086
2462.00,0.0086
2461.00,0.0087
2460.00,0.0087
2459.00,0.0087
2458.00,0.0088
2457.00,0.0088
2456.00,0.0089
2455.00,0.0089
2454.00,0.0089
2453.00,0.0088
2452.00,0.0088
2451.00,0.0087
2450.00,0.0087
2449.00,0.0087
2448.00,0.0087
2447.00,0.0087
2446.00,0.0086
2445.00,0.0087
2444.00,0.0087
2443.00,0.0087
2442.00,0.0087
2441.00,0.0087
2440.00,0.0087
2439.00,0.0086
2438.00,0.0086
2437.00,0.0086
2436.00,0.0085
2435.00,0.0085
2434.00,0.0085
2433.00,0.0085
2432.00,0.0086
2431.00,0.0086
2430.00,0.0086
2429.00,0.0086
2428.00,0.0086
2427.00,0.0086
2426.00,0.0086
2425.00,0.0086
2424.00,0.0086
2423.00,0.0086
2422.00,0.0085
2421.00,0.0085
2420.00,0.0085
2419.00,0.0085
2418.00,0.0084
2417.00,0.0084
2416.00,0.0084
2415.00,0.0084
2414.00,0.0083
2413.00,0.0083
2412.00,0.0084
2411.00,0.0085
2410.00,0.0085
2409.00,0.0086
2408.00,0.0085
2407.00,0.0085
2406.00,0.0084
2405.00,0.0084
2404.00,0.0084
2403.00,0.0084
2402.00,0.0085
2401.00,0.0085
2400.00,0.0085
2399.00,0.0085
2398.00,0.0085
2397.00,0.0085
2396.00,0.0085
2395.00,0.0085
2394.00,0.0086
2393.00,0.0086
2392.00,0.0086
2391.00,0.0087
2390.00,0.0086
2389.00,0.0086
2388.00,0.0086
2387.00,0.0086
2386.00,0.0086
2385.00,0.0085
2384.00,0.0085
2383.00,0.0084
2382.00,0.0083
2381.00,0.0083
2380.00,0.0082
2379.00,0.0082
2378.00,0.0082
2377.00,0.0082
2376.00,0.0083
2375.00,0.0085
2374.00,0.0086
2373.00,0.0087
2372.00,0.0087
2371.00,0.0086
2370.00,0.0086
2369.00,0.0085
2368.00,0.0085
2367.00,0.0084
2366.00,0.0084
2365.00,0.0085
2364.00,0.0086
2363.00,0.0088
2362.00,0.0089
2361.00,0.0090
2360.00,0.0091
2359.00,0.0090
2358.00,0.0089
2357.00,0.0089
2356.00,0.0090
2355.00,0.0090
2354.00,0.0091
2353.00,0.0091
2352.00,0.0090
2351.00,0.0089
2350.00,0.0090
2349.00,0.0091
2348.00,0.0093
2347.00,0.0095
2346.00,0.0095
2345.00,0.0094
2344.00,0.0094
2343.00,0.0094
2342.00,0.0096
2341.00,0.0097
2340.00,0.0097
2339.00,0.0097
2338.00,0.0096
2337.00,0.0096
2336.00,0.0096
2335.00,0.0096
2334.00,0.0096
2333.00,0.0095
2332.00,0.0095
2331.00,0.0094
2330.00,0.0094
2329.00,0.0096
2328.00,0.0099
2327.00,0.0104
2326.00,0.0109
2325.00,0.0113
2324.00,0.0114
2323.00,0.0113
2322.00,0.0110
2321.00,0.0108
2320.00,0.0107
2319.00,0.0107
2318.00,0.0107
2317.00,0.0108
2316.00,0.0108
2315.00,0.0107
2314.00,0.0106
2313.00,0.0105
2312.00,0.0105
2311.00,0.0105
2310.00,0.0105
2309.00,0.0104
2308.00,0.0103
2307.00,0.0103
2306.00,0.0102
2305.00,0.0103
2304.00,0.0103
2303.00,0.0104
2302.00,0.0105
2301.00,0.0106
2300.00,0.0107
2299.00,0.0108
2298.00,0.0109
2297.00,0.0109
2296.00,0.0109
2295.00,0.0110
2294.00,0.0110
2293.00,0.0110
2292.00,0.0111
2291.00,0.0112
2290.00,0.0113
2289.00,0.0114
2288.00,0.0115
2287.00,0.0115
2286.00,0.0115
2285.00,0.0115
2284.00,0.0115
2283.00,0.0115
2282.00,0.0115
2281.00,0.0114
2280.00,0.0114
2279.00,0.0113
2278.00,0.0113
2277.00,0.0112
2276.00,0.0111
2275.00,0.0111
2274.00,0.0110
2273.00,0.0111
2272.00,0.0111
2271.00,0.0111
2270.00,0.0111
2269.00,0.0110
2268.00,0.0109
2267.00,0.0107
2266.00,0.0106
2265.00,0.0106
2264.00,0.0106
2263.00,0.0106
2262.00,0.0106
2261.00,0.0106
2260.00,0.0107
2259.00,0.0107
2258.00,0.0108
2257.00,0.0107
2256.00,0.0106
2255.00,0.0105
2254.00,0.0105
2253.00,0.0104
2252.00,0.0104
2251.00,0.0104
2250.00,0.0103
2249.00,0.0104
2248.00,0.0105
2247.00,0.0105
2246.00,0.0106
2245.00,0.0105
2244.00,0.0104
2243.00,0.0104
2242.00,0.0104
2241.00,0.0105
2240.00,0.0105
2239.00,0.0105
2238.00,0.0105
2237.00,0.0104
2236.00,0.0104
2235.00,0.0104
2234.00,0.0104
2233.00,0.0104
2232.00,0.0104
2231.00,0.0105
2230.00,0.0106
2229.00,0.0107
2228.00,0.0107
2227.00,0.0107
2226.00,0.0107
2225.00,0.0107
2224.00,0.0107
2223.00,0.0106
2222.00,0.0104
2221.00,0.0104
2220.00,0.0104
2219.00,0.0104
2218.00,0.0105
2217.00,0.0107
2216.00,0.0108
2215.00,0.0108
2214.00,0.0108
2213.00,0.0106
2212.00,0.0105
2211.00,0.0103
2210.00,0.0102
2209.00,0.0103
2208.00,0.0105
2207.00,0.0106
2206.00,0.0105
2205.00,0.0105
2204.00,0.0106
2203.00,0.0107
2202.00,0.0108
2201.00,0.0108
2200.00,0.0107
2199.00,0.0105
2198.00,0.0103
2197.00,0.0103
2196.00,0.0103
2195.00,0.0104
2194.00,0.0105
2193.00,0.0106
2192.00,0.0106
2191.00,0.0105
2190.00,0.0105
2189.00,0.0106
2188.00,0.0108
2187.00,0.0108
2186.00,0.0107
2185.00,0.0106
2184.00,0.0104
2183.00,0.0102
2182.00,0.0101
2181.00,0.0100
2180.00,0.0099
2179.00,0.0098
2178.00,0.0097
2177.00,0.0096
2176.00,0.0095
2175.00,0.0094
2174.00,0.0094
2173.00,0.0094
2172.00,0.0095
2171.00,0.0096
2170.00,0.0099
2169.00,0.0104
2168.00,0.0108
2167.00,0.0109
2166.00,0.0106
2165.00,0.0102
2164.00,0.0100
2163.00,0.0100
2162.00,0.0100
2161.00,0.0097
2160.00,0.0087
2159.00,0.0070
2158.00,0.0055
2157.00,0.0048
2156.00,0.0050
2155.00,0.0055
2154.00,0.0059
2153.00,0.0063
2152.00,0.0066
2151.00,0.0068
2150.00,0.0071
2149.00,0.0074
2148.00,0.0078
2147.00,0.0080
2146.00,0.0081
2145.00,0.0081
2144.00,0.0081
2143.00,0.0082
2142.00,0.0081
2141.00,0.0082
2140.00,0.0084
2139.00,0.0087
2138.00,0.0089
2137.00,0.0090
2136.00,0.0090
2135.00,0.0087
2134.00,0.0086
2133.00,0.0086
2132.00,0.0088
2131.00,0.0090
2130.00,0.0093
2129.00,0.0096
2128.00,0.0100
2127.00,0.0103
2126.00,0.0105
2125.00,0.0107
2124.00,0.0109
2123.00,0.0111
2122.00,0.0111
2121.00,0.0112
2120.00,0.0112
2119.00,0.0112
2118.00,0.0112
2117.00,0.0114
2116.00,0.0116
2115.00,0.0118
2114.00,0.0119
2113.00,0.0119
2112.00,0.0118
2111.00,0.0118
2110.00,0.0118
2109.00,0.0119
2108.00,0.0120
2107.00,0.0121
2106.00,0.0122
2105.00,0.0121
2104.00,0.0121
2103.00,0.0120
2102.00,0.0118
2101.00,0.0117
2100.00,0.0116
2099.00,0.0115
2098.00,0.0114
2097.00,0.0113
2096.00,0.0113
2095.00,0.0112
2094.00,0.0110
2093.00,0.0109
2092.00,0.0109
2091.00,0.0109
2090.00,0.0109
2089.00,0.0109
2088.00,0.0110
2087.00,0.0111
2086.00,0.0112
2085.00,0.0113
2084.00,0.0113
2083.00,0.0113
2082.00,0.0112
2081.00,0.0112
2080.00,0.0112
2079.00,0.0111
2078.00,0.0110
2077.00,0.0109
2076.00,0.0109
2075.00,0.0108
2074.00,0.0108
2073.00,0.0109
2072.00,0.0109
2071.00,0.0109
2070.00,0.0107
2069.00,0.0105
2068.00,0.0103
2067.00,0.0101
2066.00,0.0098
2065.00,0.0097
2064.00,0.0096
2063.00,0.0097
2062.00,0.0098
2061.00,0.0099
2060.00,0.0100
2059.00,0.0100
2058.00,0.0099
2057.00,0.0097
2056.00,0.0096
2055.00,0.0095
2054.00,0.0095
2053.00,0.0097
2052.00,0.0101
2051.00,0.0104
2050.00,0.0103
2049.00,0.0099
2048.00,0.0094
2047.00,0.0089
2046.00,0.0084
2045.00,0.0081
2044.00,0.0079
2043.00,0.0077
2042.00,0.0076
2041.00,0.0078
2040.00,0.0081
2039.00,0.0082
2038.00,0.0082
2037.00,0.0081
2036.00,0.0079
2035.00,0.0074
2034.00,0.0070
2033.00,0.0068
2032.00,0.0068
2031.00,0.0068
2030.00,0.0068
2029.00,0.0067
2028.00,0.0065
2027.00,0.0062
2026.00,0.0059
2025.00,0.0059
2024.00,0.0061
2023.00,0.0063
2022.00,0.0064
2021.00,0.0064
2020.00,0.0065
2019.00,0.0064
2018.00,0.0063
2017.00,0.0061
2016.00,0.0060
2015.00,0.0059
2014.00,0.0059
2013.00,0.0059
2012.00,0.0058
2011.00,0.0057
2010.00,0.0054
2009.00,0.0053
2008.00,0.0053
2007.00,0.0052
2006.00,0.0051
2005.00,0.0052
2004.00,0.0054
2003.00,0.0057
2002.00,0.0060
2001.00,0.0063
2000.00,0.0066
1999.00,0.0068
1998.00,0.0069
1997.00,0.0069
1996.00,0.0068
1995.00,0.0068
1994.00,0.0068
1993.00,0.0069
1992.00,0.0071
1991.00,0.0072
1990.00,0.0072
1989.00,0.0071
1988.00,0.0071
1987.00,0.0071
1986.00,0.0070
1985.00,0.0072
1984.00,0.0076
1983.00,0.0079
1982.00,0.0080
1981.00,0.0081
1980.00,0.0079
1979.00,0.0074
1978.00,0.0067
1977.00,0.0061
1976.00,0.0058
1975.00,0.0055
1974.00,0.0052
1973.00,0.0050
1972.00,0.0049
1971.00,0.0048
1970.00,0.0048
1969.00,0.0048
1968.00,0.0050
1967.00,0.0051
1966.00,0.0052
1965.00,0.0053
1964.00,0.0055
1963.00,0.0055
1962.00,0.0054
1961.00,0.0053
1960.00,0.0051
1959.00,0.0049
1958.00,0.0048
1957.00,0.0050
1956.00,0.0054
1955.00,0.0057
1954.00,0.0057
1953.00,0.0056
1952.00,0.0055
1951.00,0.0055
1950.00,0.0056
1949.00,0.0056
1948.00,0.0055
1947.00,0.0054
1946.00,0.0052
1945.00,0.0053
1944.00,0.0054
1943.00,0.0054
1942.00,0.0054
1941.00,0.0055
1940.00,0.0057
1939.00,0.0059
1938.00,0.0059
1937.00,0.0058
1936.00,0.0058
1935.00,0.0059
1934.00,0.0059
1933.00,0.0059
1932.00,0.0059
1931.00,0.0059
1930.00,0.0059
1929.00,0.0060
1928.00,0.0061
1927.00,0.0060
1926.00,0.0059
1925.00,0.0058
1924.00,0.0059
1923.00,0.0059
1922.00,0.0059
1921.00,0.0060
1920.00,0.0061
1919.00,0.0061
1918.00,0.0059
1917.00,0.0058
1916.00,0.0058
1915.00,0.0059
1914.00,0.0060
1913.00,0.0060
1912.00,0.0060
1911.00,0.0061
1910.00,0.0060
1909.00,0.0060
1908.00,0.0060
1907.00,0.0060
1906.00,0.0059
1905.00,0.0058
1904.00,0.0058
1903.00,0.0057
1902.00,0.0057
1901.00,0.0058
1900.00,0.0058
1899.00,0.0058
1898.00,0.0058
1897.00,0.0058
1896.00,0.0059
1895.00,0.0059
1894.00,0.0058
1893.00,0.0057
1892.00,0.0056
1891.00,0.0055
1890.00,0.0055
1889.00,0.0054
1888.00,0.0054
1887.00,0.0055
1886.00,0.0055
1885.00,0.0055
1884.00,0.0055
1883.00,0.0055
1882.00,0.0055
1881.00,0.0056
1880.00,0.0056
1879.00,0.0055
1878.00,0.0054
1877.00,0.0053
1876.00,0.0053
1875.00,0.0054
1874.00,0.0054
1873.00,0.0053
1872.00,0.0053
1871.00,0.0053
1870.00,0.0052
1869.00,0.0052
1868.00,0.0051
1867.00,0.0052
1866.00,0.0053
1865.00,0.0053
1864.00,0.0053
1863.00,0.0053
1862.00,0.0052
1861.00,0.0052
1860.00,0.0052
1859.00,0.0053
1858.00,0.0054
1857.00,0.0054
1856.00,0.0053
1855.00,0.0052
1854.00,0.0051
1853.00,0.0051
1852.00,0.0051
1851.00,0.0051
1850.00,0.0051
1849.00,0.0050
1848.00,0.0050
1847.00,0.0050
1846.00,0.0051
1845.00,0.0052
1844.00,0.0052
1843.00,0.0050
1842.00,0.0048
1841.00,0.0049
1840.00,0.0051
1839.00,0.0052
1838.00,0.0051
1837.00,0.0050
1836.00,0.0050
1835.00,0.0050
1834.00,0.0050
1833.00,0.0051
1832.00,0.0052
1831.00,0.0052
1830.00,0.0051
1829.00,0.0050
1828.00,0.0049
1827.00,0.0050
1826.00,0.0050
1825.00,0.0051
1824.00,0.0051
1823.00,0.0051
1822.00,0.0052
1821.00,0.0053
1820.00,0.0053
1819.00,0.0052
1818.00,0.0050
1817.00,0.0048
1816.00,0.0048
1815.00,0.0048
1814.00,0.0049
1813.00,0.0051
1812.00,0.0052
1811.00,0.0052
1810.00,0.0052
1809.00,0.0052
1808.00,0.0052
1807.00,0.0051
1806.00,0.0051
1805.00,0.0050
1804.00,0.0050
1803.00,0.0050
1802.00,0.0050
1801.00,0.0050
1800.00,0.0051
1799.00,0.0052
1798.00,0.0052
1797.00,0.0052
1796.00,0.0051
1795.00,0.0051
1794.00,0.0051
1793.00,0.0052
1792.00,0.0051
1791.00,0.0049
1790.00,0.0049
1789.00,0.0050
1788.00,0.0051
1787.00,0.0052
1786.00,0.0051
1785.00,0.0050
1784.00,0.0050
1783.00,0.0050
1782.00,0.0050
1781.00,0.0050
1780.00,0.0050
1779.00,0.0050
1778.00,0.0050
1777.00,0.0049
1776.00,0.0049
1775.00,0.0050
1774.00,0.0051
1773.00,0.0053
1772.00,0.0052
1771.00,0.0050
1770.00,0.0049
1769.00,0.0051
1768.00,0.0052
1767.00,0.0052
1766.00,0.0050
1765.00,0.0050
1764.00,0.0051
1763.00,0.0052
1762.00,0.0052
1761.00,0.0052
1760.00,0.0053
1759.00,0.0056
1758.00,0.0058
1757.00,0.0061
1756.00,0.0064
1755.00,0.0066
1754.00,0.0069
1753.00,0.0073
1752.00,0.0078
1751.00,0.0081
1750.00,0.0082
1749.00,0.0086
1748.00,0.0091
1747.00,0.0095
1746.00,0.0098
1745.00,0.0101
1744.00,0.0104
1743.00,0.0107
1742.00,0.0110
1741.00,0.0114
1740.00,0.0118
1739.00,0.0120
1738.00,0.0120
1737.00,0.0123
1736.00,0.0130
1735.00,0.0137
1734.00,0.0142
1733.00,0.0144
1732.00,0.0146
1731.00,0.0149
1730.00,0.0152
1729.00,0.0156
1728.00,0.0160
1727.00,0.0164
1726.00,0.0168
1725.00,0.0172
1724.00,0.0178
1723.00,0.0183
1722.00,0.0186
1721.00,0.0190
1720.00,0.0195
1719.00,0.0203
1718.00,0.0212
1717.00,0.0222
1716.00,0.0231
1715.00,0.0237
1714.00,0.0243
1713.00,0.0249
1712.00,0.0257
1711.00,0.0264
1710.00,0.0271
1709.00,0.0278
1708.00,0.0287
1707.00,0.0298
1706.00,0.0309
1705.00,0.0321
1704.00,0.0331
1703.00,0.0342
1702.00,0.0356
1701.00,0.0376
1700.00,0.0401
1699.00,0.0424
1698.00,0.0446
1697.00,0.0470
1696.00,0.0498
1695.00,0.0524
1694.00,0.0544
1693.00,0.0563
1692.00,0.0584
1691.00,0.0607
1690.00,0.0632
1689.00,0.0658
1688.00,0.0684
1687.00,0.0708
1686.00,0.0733
1685.00,0.0766
1684.00,0.0806
1683.00,0.0843
1682.00,0.0870
1681.00,0.0894
1680.00,0.0917
1679.00,0.0939
1678.00,0.0958
1677.00,0.0980
1676.00,0.1009
1675.00,0.1043
1674.00,0.1075
1673.00,0.1102
1672.00,0.1127
1671.00,0.1154
1670.00,0.1187
1669.00,0.1225
1668.00,0.1262
1667.00,0.1293
1666.00,0.1318
1665.00,0.1343
1664.00,0.1372
1663.00,0.1408
1662.00,0.1447
1661.00,0.1484
1660.00,0.1517
1659.00,0.1545
1658.00,0.1568
1657.00,0.1586
1656.00,0.1600
1655.00,0.1615
1654.00,0.1645
1653.00,0.1700
1652.00,0.1753
1651.00,0.1778
1650.00,0.1783
1649.00,0.1786
1648.00,0.1795
1647.00,0.1815
1646.00,0.1840
1645.00,0.1861
1644.00,0.1873
1643.00,0.1880
1642.00,0.1883
1641.00,0.1885
1640.00,0.1887
1639.00,0.1888
1638.00,0.1888
1637.00,0.1889
1636.00,0.1898
1635.00,0.1911
1634.00,0.1918
1633.00,0.1916
1632.00,0.1908
1631.00,0.1896
1630.00,0.1882
1629.00,0.1867
1628.00,0.1853
1627.00,0.1840
1626.00,0.1825
1625.00,0.1807
1624.00,0.1787
1623.00,0.1768
1622.00,0.1747
1621.00,0.1724
1620.00,0.1698
1619.00,0.1668
1618.00,0.1634
1617.00,0.1594
1616.00,0.1554
1615.00,0.1516
1614.00,0.1481
1613.00,0.1444
1612.00,0.1405
1611.00,0.1366
1610.00,0.1329
1609.00,0.1293
1608.00,0.1259
1607.00,0.1227
1606.00,0.1196
1605.00,0.1166
1604.00,0.1136
1603.00,0.1108
1602.00,0.1081
1601.00,0.1055
1600.00,0.1029
1599.00,0.1005
1598.00,0.0982
1597.00,0.0959
1596.00,0.0938
1595.00,0.0918
1594.00,0.0899
1593.00,0.0881
1592.00,0.0863
1591.00,0.0846
1590.00,0.0831
1589.00,0.0818
1588.00,0.0805
1587.00,0.0794
1586.00,0.0784
1585.00,0.0775
1584.00,0.0767
1583.00,0.0760
1582.00,0.0754
1581.00,0.0748
1580.00,0.0743
1579.00,0.0739
1578.00,0.0739
1577.00,0.0741
1576.00,0.0743
1575.00,0.0745
1574.00,0.0745
1573.00,0.0744
1572.00,0.0742
1571.00,0.0743
1570.00,0.0747
1569.00,0.0754
1568.00,0.0762
1567.00,0.0770
1566.00,0.0776
1565.00,0.0782
1564.00,0.0788
1563.00,0.0792
1562.00,0.0795
1561.00,0.0797
1560.00,0.0803
1559.00,0.0825
1558.00,0.0853
1557.00,0.0872
1556.00,0.0882
1555.00,0.0892
1554.00,0.0900
1553.00,0.0907
1552.00,0.0913
1551.00,0.0918
1550.00,0.0924
1549.00,0.0929
1548.00,0.0933
1547.00,0.0934
1546.00,0.0932
1545.00,0.0929
1544.00,0.0925
1543.00,0.0923
1542.00,0.0921
1541.00,0.0921
1540.00,0.0921
1539.00,0.0917
1538.00,0.0909
1537.00,0.0897
1536.00,0.0883
1535.00,0.0867
1534.00,0.0850
1533.00,0.0835
1532.00,0.0822
1531.00,0.0811
1530.00,0.0798
1529.00,0.0782
1528.00,0.0766
1527.00,0.0750
1526.00,0.0735
1525.00,0.0721
1524.00,0.0708
1523.00,0.0695
1522.00,0.0682
1521.00,0.0669
1520.00,0.0656
1519.00,0.0643
1518.00,0.0630
1517.00,0.0615
1516.00,0.0599
1515.00,0.0583
1514.00,0.0567
1513.00,0.0548
1512.00,0.0528
1511.00,0.0506
1510.00,0.0486
1509.00,0.0468
1508.00,0.0452
1507.00,0.0437
1506.00,0.0422
1505.00,0.0407
1504.00,0.0392
1503.00,0.0377
1502.00,0.0362
1501.00,0.0347
1500.00,0.0332
1499.00,0.0320
1498.00,0.0310
1497.00,0.0302
1496.00,0.0294
1495.00,0.0284
1494.00,0.0275
1493.00,0.0267
1492.00,0.0259
1491.00,0.0251
1490.00,0.0243
1489.00,0.0238
1488.00,0.0235
1487.00,0.0232
1486.00,0.0230
1485.00,0.0227
1484.00,0.0225
1483.00,0.0224
1482.00,0.0224
1481.00,0.0225
1480.00,0.0227
1479.00,0.0230
1478.00,0.0232
1477.00,0.0236
1476.00,0.0241
1475.00,0.0248
1474.00,0.0259
1473.00,0.0272
1472.00,0.0285
1471.00,0.0295
1470.00,0.0302
1469.00,0.0307
1468.00,0.0310
1467.00,0.0312
1466.00,0.0316
1465.00,0.0322
1464.00,0.0329
1463.00,0.0336
1462.00,0.0340
1461.00,0.0342
1460.00,0.0344
1459.00,0.0347
1458.00,0.0356
1457.00,0.0370
1456.00,0.0383
1455.00,0.0389
1454.00,0.0390
1453.00,0.0389
1452.00,0.0388
1451.00,0.0385
1450.00,0.0383
1449.00,0.0382
1448.00,0.0383
1447.00,0.0383
1446.00,0.0384
1445.00,0.0384
1444.00,0.0384
1443.00,0.0383
1442.00,0.0383
1441.00,0.0382
1440.00,0.0381
1439.00,0.0379
1438.00,0.0377
1437.00,0.0379
1436.00,0.0384
1435.00,0.0388
1434.00,0.0390
1433.00,0.0391
1432.00,0.0392
1431.00,0.0394
1430.00,0.0397
1429.00,0.0402
1428.00,0.0407
1427.00,0.0410
1426.00,0.0414
1425.00,0.0418
1424.00,0.0423
1423.00,0.0427
1422.00,0.0429
1421.00,0.0431
1420.00,0.0435
1419.00,0.0440
1418.00,0.0446
1417.00,0.0451
1416.00,0.0454
1415.00,0.0455
1414.00,0.0454
1413.00,0.0452
1412.00,0.0451
1411.00,0.0449
1410.00,0.0446
1409.00,0.0443
1408.00,0.0439
1407.00,0.0434
1406.00,0.0429
1405.00,0.0425
1404.00,0.0422
1403.00,0.0417
1402.00,0.0410
1401.00,0.0402
1400.00,0.0394
1399.00,0.0386
1398.00,0.0379
1397.00,0.0372
1396.00,0.0365
1395.00,0.0358
1394.00,0.0351
1393.00,0.0346
1392.00,0.0340
1391.00,0.0333
1390.00,0.0327
1389.00,0.0320
1388.00,0.0316
1387.00,0.0313
1386.00,0.0310
1385.00,0.0307
1384.00,0.0304
1383.00,0.0300
1382.00,0.0297
1381.00,0.0294
1380.00,0.0290
1379.00,0.0286
1378.00,0.0281
1377.00,0.0276
1376.00,0.0270
1375.00,0.0264
1374.00,0.0258
1373.00,0.0253
1372.00,0.0248
1371.00,0.0242
1370.00,0.0236
1369.00,0.0229
1368.00,0.0222
1367.00,0.0214
1366.00,0.0206
1365.00,0.0197
1364.00,0.0188
1363.00,0.0181
1362.00,0.0176
1361.00,0.0172
1360.00,0.0169
1359.00,0.0165
1358.00,0.0161
1357.00,0.0156
1356.00,0.0152
1355.00,0.0148
1354.00,0.0145
1353.00,0.0142
1352.00,0.0138
1351.00,0.0135
1350.00,0.0131
1349.00,0.0127
1348.00,0.0123
1347.00,0.0119
1346.00,0.0114
1345.00,0.0110
1344.00,0.0106
1343.00,0.0102
1342.00,0.0097
1341.00,0.0093
1340.00,0.0089
1339.00,0.0086
1338.00,0.0084
1337.00,0.0082
1336.00,0.0079
1335.00,0.0076
1334.00,0.0073
1333.00,0.0070
1332.00,0.0067
1331.00,0.0065
1330.00,0.0063
1329.00,0.0062
1328.00,0.0062
1327.00,0.0061
1326.00,0.0061
1325.00,0.0061
1324.00,0.0061
1323.00,0.0061
1322.00,0.0061
1321.00,0.0062
1320.00,0.0062
1319.00,0.0062
1318.00,0.0062
1317.00,0.0061
1316.00,0.0061
1315.00,0.0060
1314.00,0.0059
1313.00,0.0057
1312.00,0.0056
1311.00,0.0055
1310.00,0.0054
1309.00,0.0052
1308.00,0.0051
1307.00,0.0050
1306.00,0.0049
1305.00,0.0049
1304.00,0.0049
1303.00,0.0049
1302.00,0.0050
1301.00,0.0051
1300.00,0.0053
1299.00,0.0055
1298.00,0.0058
1297.00,0.0061
1296.00,0.0066
1295.00,0.0070
1294.00,0.0075
1293.00,0.0081
1292.00,0.0087
1291.00,0.0095
1290.00,0.0103
1289.00,0.0112
1288.00,0.0122
1287.00,0.0133
1286.00,0.0144
1285.00,0.0156
1284.00,0.0168
1283.00,0.0180
1282.00,0.0193
1281.00,0.0207
1280.00,0.0221
1279.00,0.0235
1278.00,0.0250
1277.00,0.0265
1276.00,0.0280
1275.00,0.0295
1274.00,0.0311
1273.00,0.0326
1272.00,0.0340
1271.00,0.0355
1270.00,0.0370
1269.00,0.0385
1268.00,0.0399
1267.00,0.0413
1266.00,0.0426
1265.00,0.0440
1264.00,0.0454
1263.00,0.0468
1262.00,0.0481
1261.00,0.0493
1260.00,0.0506
1259.00,0.0517
1258.00,0.0528
1257.00,0.0539
1256.00,0.0549
1255.00,0.0559
1254.00,0.0569
1253.00,0.0578
1252.00,0.0587
1251.00,0.0595
1250.00,0.0604
1249.00,0.0612
1248.00,0.0619
1247.00,0.0627
1246.00,0.0634
1245.00,0.0642
1244.00,0.0649
1243.00,0.0657
1242.00,0.0664
1241.00,0.0670
1240.00,0.0677
1239.00,0.0685
1238.00,0.0692
1237.00,0.0700
1236.00,0.0707
1235.00,0.0714
1234.00,0.0720
1233.00,0.0727
1232.00,0.0734
1231.00,0.0741
1230.00,0.0748
1229.00,0.0755
1228.00,0.0761
1227.00,0.0768
1226.00,0.0774
1225.00,0.0779
1224.00,0.0785
1223.00,0.0790
1222.00,0.0794
1221.00,0.0797
1220.00,0.0800
1219.00,0.0801
1218.00,0.0800
1217.00,0.0798
1216.00,0.0795
1215.00,0.0791
1214.00,0.0785
1213.00,0.0779
1212.00,0.0772
1211.00,0.0764
1210.00,0.0756
1209.00,0.0746
1208.00,0.0736
1207.00,0.0726
1206.00,0.0714
1205.00,0.0702
1204.00,0.0690
1203.00,0.0677
1202.00,0.0665
1201.00,0.0653
1200.00,0.0643
1199.00,0.0633
1198.00,0.0624
1197.00,0.0616
1196.00,0.0610
1195.00,0.0605
1194.00,0.0601
1193.00,0.0599
1192.00,0.0598
1191.00,0.0597
1190.00,0.0596
1189.00,0.0596
1188.00,0.0596
1187.00,0.0596
1186.00,0.0597
1185.00,0.0600
1184.00,0.0603
1183.00,0.0608
1182.00,0.0614
1181.00,0.0621
1180.00,0.0630
1179.00,0.0641
1178.00,0.0653
1177.00,0.0667
1176.00,0.0682
1175.00,0.0698
1174.00,0.0716
1173.00,0.0734
1172.00,0.0754
1171.00,0.0774
1170.00,0.0795
1169.00,0.0818
1168.00,0.0842
1167.00,0.0865
1166.00,0.0889
1165.00,0.0913
1164.00,0.0937
1163.00,0.0960
1162.00,0.0981
1161.00,0.1001
1160.00,0.1020
1159.00,0.1037
1158.00,0.1053
1157.00,0.1069
1156.00,0.1083
1155.00,0.1097
1154.00,0.1109
1153.00,0.1120
1152.00,0.1129
1151.00,0.1137
1150.00,0.1143
1149.00,0.1147
1148.00,0.1150
1147.00,0.1150
1146.00,0.1149
1145.00,0.1147
1144.00,0.1143
1143.00,0.1139
1142.00,0.1134
1141.00,0.1130
1140.00,0.1126
1139.00,0.1123
1138.00,0.1122
1137.00,0.1122
1136.00,0.1126
1135.00,0.1131
1134.00,0.1137
1133.00,0.1145
1132.00,0.1154
1131.00,0.1165
1130.00,0.1176
1129.00,0.1188
1128.00,0.1200
1127.00,0.1212
1126.00,0.1222
1125.00,0.1230
1124.00,0.1239
1123.00,0.1246
1122.00,0.1252
1121.00,0.1258
1120.00,0.1264
1119.00,0.1268
1118.00,0.1272
1117.00,0.1276
1116.00,0.1278
1115.00,0.1281
1114.00,0.1282
1113.00,0.1282
1112.00,0.1283
1111.00,0.1282
1110.00,0.1281
1109.00,0.1281
1108.00,0.1283
1107.00,0.1286
1106.00,0.1290
1105.00,0.1296
1104.00,0.1305
1103.00,0.1314
1102.00,0.1324
1101.00,0.1337
1100.00,0.1351
1099.00,0.1366
1098.00,0.1380
1097.00,0.1394
1096.00,0.1408
1095.00,0.1422
1094.00,0.1436
1093.00,0.1451
1092.00,0.1467
1091.00,0.1485
1090.00,0.1503
1089.00,0.1524
1088.00,0.1546
1087.00,0.1568
1086.00,0.1591
1085.00,0.1615
1084.00,0.1639
1083.00,0.1664
1082.00,0.1690
1081.00,0.1717
1080.00,0.1745
1079.00,0.1771
1078.00,0.1797
1077.00,0.1821
1076.00,0.1844
1075.00,0.1864
1074.00,0.1881
1073.00,0.1897
1072.00,0.1911
1071.00,0.1923
1070.00,0.1933
1069.00,0.1942
1068.00,0.1948
1067.00,0.1951
1066.00,0.1951
1065.00,0.1950
1064.00,0.1948
1063.00,0.1945
1062.00,0.1942
1061.00,0.1940
1060.00,0.1941
1059.00,0.1943
1058.00,0.1949
1057.00,0.1957
1056.00,0.1970
1055.00,0.1985
1054.00,0.2003
1053.00,0.2023
1052.00,0.2046
1051.00,0.2071
1050.00,0.2099
1049.00,0.2129
1048.00,0.2162
1047.00,0.2193
1046.00,0.2222
1045.00,0.2250
1044.00,0.2275
1043.00,0.2296
1042.00,0.2312
1041.00,0.2324
1040.00,0.2334
1039.00,0.2340
1038.00,0.2343
1037.00,0.2346
1036.00,0.2348
1035.00,0.2348
1034.00,0.2347
1033.00,0.2348
1032.00,0.2350
1031.00,0.2352
1030.00,0.2352
1029.00,0.2349
1028.00,0.2344
1027.00,0.2333
1026.00,0.2318
1025.00,0.2301
1024.00,0.2281
1023.00,0.2260
1022.00,0.2236
1021.00,0.2211
1020.00,0.2185
1019.00,0.2157
1018.00,0.2128
1017.00,0.2098
1016.00,0.2068
1015.00,0.2037
1014.00,0.2006
1013.00,0.1975
1012.00,0.1947
1011.00,0.1919
1010.00,0.1892
1009.00,0.1866
1008.00,0.1841
1007.00,0.1817
1006.00,0.1793
1005.00,0.1768
1004.00,0.1741
1003.00,0.1709
1002.00,0.1674
1001.00,0.1636
1000.00,0.1595
999.00,0.1553
998.00,0.1509
997.00,0.1467
996.00,0.1426
995.00,0.1387
994.00,0.1349
993.00,0.1312
992.00,0.1276
991.00,0.1240
990.00,0.1204
989.00,0.1168
988.00,0.1133
987.00,0.1098
986.00,0.1063
985.00,0.1029
984.00,0.0996
983.00,0.0965
982.00,0.0936
981.00,0.0910
980.00,0.0885
979.00,0.0861
978.00,0.0838
977.00,0.0816
976.00,0.0796
975.00,0.0775
974.00,0.0753
973.00,0.0732
972.00,0.0711
971.00,0.0690
970.00,0.0668
969.00,0.0644
968.00,0.0617
967.00,0.0589
966.00,0.0558
965.00,0.0527
964.00,0.0496
963.00,0.0465
962.00,0.0434
961.00,0.0406
960.00,0.0380
959.00,0.0356
958.00,0.0335
957.00,0.0315
956.00,0.0299
955.00,0.0283
954.00,0.0270
953.00,0.0258
952.00,0.0248
951.00,0.0240
950.00,0.0234
949.00,0.0229
948.00,0.0226
947.00,0.0224
946.00,0.0223
945.00,0.0225
944.00,0.0228
943.00,0.0234
942.00,0.0242
941.00,0.0253
940.00,0.0266
939.00,0.0280
938.00,0.0295
937.00,0.0310
936.00,0.0325
935.00,0.0338
934.00,0.0349
933.00,0.0357
932.00,0.0363
931.00,0.0367
930.00,0.0368
929.00,0.0367
928.00,0.0363
927.00,0.0356
926.00,0.0348
925.00,0.0339
924.00,0.0331
923.00,0.0324
922.00,0.0317
921.00,0.0308
920.00,0.0299
919.00,0.0289
918.00,0.0278
917.00,0.0266
916.00,0.0253
915.00,0.0240
914.00,0.0227
913.00,0.0214
912.00,0.0200
911.00,0.0187
910.00,0.0174
909.00,0.0162
908.00,0.0151
907.00,0.0141
906.00,0.0132
905.00,0.0123
904.00,0.0115
903.00,0.0107
902.00,0.0100
901.00,0.0094
900.00,0.0088
899.00,0.0082
898.00,0.0077
897.00,0.0074
896.00,0.0071
895.00,0.0069
894.00,0.0068
893.00,0.0066
892.00,0.0065
891.00,0.0063
890.00,0.0062
889.00,0.0062
888.00,0.0061
887.00,0.0060
886.00,0.0059
885.00,0.0058
884.00,0.0056
883.00,0.0054
882.00,0.0052
881.00,0.0051
880.00,0.0053
879.00,0.0056
878.00,0.0061
877.00,0.0066
876.00,0.0071
875.00,0.0077
874.00,0.0081
873.00,0.0085
872.00,0.0085
871.00,0.0081
870.00,0.0074
869.00,0.0064
868.00,0.0055
867.00,0.0048
866.00,0.0042
865.00,0.0040
864.00,0.0039
863.00,0.0039
862.00,0.0040
861.00,0.0043
860.00,0.0046
859.00,0.0050
858.00,0.0056
857.00,0.0064
856.00,0.0073
855.00,0.0082
854.00,0.0091
853.00,0.0101
852.00,0.0111
851.00,0.0121
850.00,0.0130
849.00,0.0138
848.00,0.0145
847.00,0.0150
846.00,0.0151
845.00,0.0151
844.00,0.0148
843.00,0.0143
842.00,0.0138
841.00,0.0133
840.00,0.0127
839.00,0.0122
838.00,0.0116
837.00,0.0112
836.00,0.0108
835.00,0.0104
834.00,0.0099
833.00,0.0095
832.00,0.0090
831.00,0.0085
830.00,0.0080
829.00,0.0076
828.00,0.0071
827.00,0.0067
826.00,0.0062
825.00,0.0058
824.00,0.0056
823.00,0.0055
822.00,0.0054
821.00,0.0053
820.00,0.0052
819.00,0.0051
818.00,0.0049
817.00,0.0048
816.00,0.0047
815.00,0.0048
814.00,0.0049
813.00,0.0050
812.00,0.0053
811.00,0.0056
810.00,0.0059
809.00,0.0063
808.00,0.0067
807.00,0.0072
806.00,0.0076
805.00,0.0080
804.00,0.0084
803.00,0.0087
802.00,0.0088
801.00,0.0089
800.00,0.0089
799.00,0.0089
798.00,0.0088
797.00,0.0087
796.00,0.0085
795.00,0.0081
794.00,0.0077
793.00,0.0073
792.00,0.0070
791.00,0.0067
790.00,0.0066
789.00,0.0065
788.00,0.0064
787.00,0.0064
786.00,0.0064
785.00,0.0064
784.00,0.0066
783.00,0.0068
782.00,0.0071
781.00,0.0075
780.00,0.0079
779.00,0.0083
778.00,0.0085
777.00,0.0086
776.00,0.0086
775.00,0.0086
774.00,0.0085
773.00,0.0084
772.00,0.0081
771.00,0.0078
770.00,0.0074
769.00,0.0070
768.00,0.0067
767.00,0.0064
766.00,0.0061
765.00,0.0057
764.00,0.0054
763.00,0.0051
762.00,0.0049
761.00,0.0049
760.00,0.0049
759.00,0.0049
758.00,0.0048
757.00,0.0048
756.00,0.0047
755.00,0.0047
754.00,0.0048
753.00,0.0051
752.00,0.0055
751.00,0.0061
750.00,0.0068
749.00,0.0077
748.00,0.0086
747.00,0.0094
746.00,0.0101
745.00,0.0108
744.00,0.0114
743.00,0.0119
742.00,0.0123
741.00,0.0127
740.00,0.0129
739.00,0.0129
738.00,0.0128
737.00,0.0128
736.00,0.0128
735.00,0.0128
734.00,0.0127
733.00,0.0125
732.00,0.0124
731.00,0.0124
730.00,0.0124
729.00,0.0125
728.00,0.0128
727.00,0.0130
726.00,0.0132
725.00,0.0135
724.00,0.0137
723.00,0.0139
722.00,0.0140
721.00,0.0140
720.00,0.0139
719.00,0.0137
718.00,0.0135
717.00,0.0134
716.00,0.0134
715.00,0.0134
714.00,0.0133
713.00,0.0133
712.00,0.0135
711.00,0.0138
710.00,0.0141
709.00,0.0145
708.00,0.0149
707.00,0.0154
706.00,0.0159
705.00,0.0164
704.00,0.0167
703.00,0.0169
702.00,0.0171
701.00,0.0173
700.00,0.0175
699.00,0.0176
698.00,0.0174
697.00,0.0171
696.00,0.0167
695.00,0.0162
694.00,0.0155
693.00,0.0147
692.00,0.0138
691.00,0.0128
690.00,0.0120
689.00,0.0113
688.00,0.0107
687.00,0.0101
686.00,0.0096
685.00,0.0092
684.00,0.0090
683.00,0.0088
682.00,0.0086
681.00,0.0085
680.00,0.0086
679.00,0.0088
678.00,0.0091
677.00,0.0096
676.00,0.0103
675.00,0.0112
674.00,0.0123
673.00,0.0136
672.00,0.0146
671.00,0.0148
670.00,0.0145
669.00,0.0144
668.00,0.0156
667.00,0.0173
666.00,0.0178
665.00,0.0171
664.00,0.0160
663.00,0.0151
662.00,0.0145
661.00,0.0143
660.00,0.0142
659.00,0.0141
658.00,0.0139
657.00,0.0135
656.00,0.0131
655.00,0.0127
654.00,0.0122
653.00,0.0118
652.00,0.0114
651.00,0.0110
650.00,0.0106
649.00,0.0101
648.00,0.0095
647.00,0.0088
646.00,0.0079
645.00,0.0073
644.00,0.0069
643.00,0.0066
642.00,0.0063
641.00,0.0058
640.00,0.0054
639.00,0.0049
638.00,0.0045
637.00,0.0043
636.00,0.0042
635.00,0.0044
634.00,0.0046
633.00,0.0050
632.00,0.0056
631.00,0.0062
630.00,0.0068
629.00,0.0074
628.00,0.0082
627.00,0.0090
626.00,0.0098
625.00,0.0106
624.00,0.0114
623.00,0.0122
622.00,0.0131
621.00,0.0139
620.00,0.0147
619.00,0.0155
618.00,0.0161
617.00,0.0167
616.00,0.0174
615.00,0.0181
614.00,0.0188
613.00,0.0196
612.00,0.0204
611.00,0.0212
610.00,0.0221
609.00,0.0231
608.00,0.0245
607.00,0.0259
606.00,0.0274
605.00,0.0290
604.00,0.0309
603.00,0.0327
602.00,0.0344
601.00,0.0359
600.00,0.0372
599.00,0.0383
598.00,0.0390
597.00,0.0391
596.00,0.0386
595.00,0.0375
594.00,0.0360
593.00,0.0345
592.00,0.0335
591.00,0.0328
590.00,0.0324
589.00,0.0324
588.00,0.0328
587.00,0.0333
586.00,0.0337
585.00,0.0340
584.00,0.0342
583.00,0.0344
582.00,0.0346
581.00,0.0350
580.00,0.0354
579.00,0.0358
578.00,0.0361
577.00,0.0363
576.00,0.0364
575.00,0.0361
574.00,0.0352
573.00,0.0342
572.00,0.0337
571.00,0.0333
570.00,0.0326
569.00,0.0316
568.00,0.0306
567.00,0.0297
566.00,0.0289
565.00,0.0285
564.00,0.0284
563.00,0.0279
562.00,0.0270
561.00,0.0260
560.00,0.0253
559.00,0.0248
558.00,0.0242
557.00,0.0236
556.00,0.0231
555.00,0.0226
554.00,0.0220
553.00,0.0215
552.00,0.0212
551.00,0.0211
550.00,0.0212
549.00,0.0215
548.00,0.0222
547.00,0.0227
546.00,0.0227
545.00,0.0224
544.00,0.0222
543.00,0.0222
542.00,0.0223
541.00,0.0227
540.00,0.0233
539.00,0.0234
538.00,0.0229
537.00,0.0224
536.00,0.0225
535.00,0.0232
534.00,0.0240
533.00,0.0246
532.00,0.0248
531.00,0.0246
530.00,0.0244
529.00,0.0245
528.00,0.0251
527.00,0.0257
526.00,0.0262
525.00,0.0269
524.00,0.0275
523.00,0.0276
522.00,0.0273
521.00,0.0271
520.00,0.0277
519.00,0.0286
518.00,0.0292
517.00,0.0296
516.00,0.0299
515.00,0.0296
514.00,0.0285
513.00,0.0271
512.00,0.0259
511.00,0.0248
510.00,0.0234
509.00,0.0216
508.00,0.0195
507.00,0.0173
506.00,0.0151
505.00,0.0132
504.00,0.0118
503.00,0.0108
502.00,0.0101
501.00,0.0097
500.00,0.0096
499.00,0.0093
498.00,0.0086
497.00,0.0078
496.00,0.0073
495.00,0.0069
494.00,0.0064
493.00,0.0058
492.00,0.0054
491.00,0.0049
490.00,0.0043
489.00,0.0038
488.00,0.0035
487.00,0.0034
486.00,0.0036
485.00,0.0042
484.00,0.0051
483.00,0.0055
482.00,0.0055
481.00,0.0058
480.00,0.0068
479.00,0.0078
478.00,0.0083
477.00,0.0088
476.00,0.0098
475.00,0.0107
474.00,0.0111
473.00,0.0123
472.00,0.0155
471.00,0.0192
470.00,0.0215
469.00,0.0222
468.00,0.0226
467.00,0.0229
466.00,0.0230
465.00,0.0234
464.00,0.0246
463.00,0.0257
462.00,0.0258
461.00,0.0253
460.00,0.0252
459.00,0.0252
458.00,0.0240
457.00,0.0217
456.00,0.0190
455.00,0.0160
454.00,0.0127
453.00,0.0099
452.00,0.0081
451.00,0.0067
450.00,0.0047
