Created as New Dataset,Sample 005 By Administrator Date Friday, May 30 2025
cm-1,A
4000.00,0.0080
3999.00,0.0080
3998.00,0.0080
3997.00,0.0080
3996.00,0.0080
3995.00,0.0080
3994.00,0.0079
3993.00,0.0079
3992.00,0.0079
3991.00,0.0079
3990.00,0.0080
3989.00,0.0080
3988.00,0.0080
3987.00,0.0080
3986.00,0.0080
3985.00,0.0081
3984.00,0.0081
3983.00,0.0081
3982.00,0.0081
3981.00,0.0081
3980.00,0.0081
3979.00,0.0081
3978.00,0.0081
3977.00,0.0081
3976.00,0.0081
3975.00,0.0081
3974.00,0.0081
3973.00,0.0081
3972.00,0.0081
3971.00,0.0081
3970.00,0.0081
3969.00,0.0081
3968.00,0.0081
3967.00,0.0081
3966.00,0.0081
3965.00,0.0082
3964.00,0.0082
3963.00,0.0082
3962.00,0.0082
3961.00,0.0082
3960.00,0.0082
3959.00,0.0082
3958.00,0.0082
3957.00,0.0082
3956.00,0.0082
3955.00,0.0082
3954.00,0.0082
3953.00,0.0082
3952.00,0.0082
3951.00,0.0082
3950.00,0.0082
3949.00,0.0082
3948.00,0.0081
3947.00,0.0081
3946.00,0.0082
3945.00,0.0082
3944.00,0.0082
3943.00,0.0082
3942.00,0.0082
3941.00,0.0082
3940.00,0.0082
3939.00,0.0082
3938.00,0.0082
3937.00,0.0082
3936.00,0.0082
3935.00,0.0082
3934.00,0.0082
3933.00,0.0082
3932.00,0.0082
3931.00,0.0082
3930.00,0.0081
3929.00,0.0081
3928.00,0.0081
3927.00,0.0082
3926.00,0.0082
3925.00,0.0082
3924.00,0.0081
3923.00,0.0081
3922.00,0.0081
3921.00,0.0081
3920.00,0.0081
3919.00,0.0082
3918.00,0.0082
3917.00,0.0082
3916.00,0.0082
3915.00,0.0082
3914.00,0.0082
3913.00,0.0082
3912.00,0.0082
3911.00,0.0082
3910.00,0.0082
3909.00,0.0082
3908.00,0.0083
3907.00,0.0083
3906.00,0.0083
3905.00,0.0084
3904.00,0.0084
3903.00,0.0083
3902.00,0.0083
3901.00,0.0082
3900.00,0.0082
3899.00,0.0081
3898.00,0.0081
3897.00,0.0081
3896.00,0.0082
3895.00,0.0082
3894.00,0.0082
3893.00,0.0082
3892.00,0.0082
3891.00,0.0081
3890.00,0.0081
3889.00,0.0081
3888.00,0.0081
3887.00,0.0082
3886.00,0.0083
3885.00,0.0083
3884.00,0.0083
3883.00,0.0083
3882.00,0.0083
3881.00,0.0083
3880.00,0.0083
3879.00,0.0082
3878.00,0.0082
3877.00,0.0083
3876.00,0.0084
3875.00,0.0084
3874.00,0.0084
3873.00,0.0084
3872.00,0.0084
3871.00,0.0083
3870.00,0.0083
3869.00,0.0082
3868.00,0.0082
3867.00,0.0082
3866.00,0.0083
3865.00,0.0083
3864.00,0.0084
3863.00,0.0083
3862.00,0.0084
3861.00,0.0084
3860.00,0.0084
3859.00,0.0084
3858.00,0.0084
3857.00,0.0084
3856.00,0.0083
3855.00,0.0084
3854.00,0.0084
3853.00,0.0084
3852.00,0.0084
3851.00,0.0084
3850.00,0.0084
3849.00,0.0085
3848.00,0.0085
3847.00,0.0085
3846.00,0.0085
3845.00,0.0085
3844.00,0.0085
3843.00,0.0085
3842.00,0.0084
3841.00,0.0084
3840.00,0.0084
3839.00,0.0083
3838.00,0.0083
3837.00,0.0083
3836.00,0.0084
3835.00,0.0084
3834.00,0.0084
3833.00,0.0084
3832.00,0.0084
3831.00,0.0084
3830.00,0.0083
3829.00,0.0084
3828.00,0.0084
3827.00,0.0084
3826.00,0.0085
3825.00,0.0085
3824.00,0.0085
3823.00,0.0086
3822.00,0.0086
3821.00,0.0085
3820.00,0.0085
3819.00,0.0085
3818.00,0.0086
3817.00,0.0086
3816.00,0.0086
3815.00,0.0086
3814.00,0.0086
3813.00,0.0086
3812.00,0.0086
3811.00,0.0086
3810.00,0.0086
3809.00,0.0086
3808.00,0.0085
3807.00,0.0085
3806.00,0.0085
3805.00,0.0086
3804.00,0.0087
3803.00,0.0087
3802.00,0.0088
3801.00,0.0088
3800.00,0.0087
3799.00,0.0087
3798.00,0.0088
3797.00,0.0088
3796.00,0.0088
3795.00,0.0087
3794.00,0.0087
3793.00,0.0087
3792.00,0.0088
3791.00,0.0087
3790.00,0.0087
3789.00,0.0087
3788.00,0.0088
3787.00,0.0088
3786.00,0.0089
3785.00,0.0089
3784.00,0.0089
3783.00,0.0089
3782.00,0.0089
3781.00,0.0089
3780.00,0.0089
3779.00,0.0089
3778.00,0.0089
3777.00,0.0089
3776.00,0.0089
3775.00,0.0090
3774.00,0.0090
3773.00,0.0091
3772.00,0.0091
3771.00,0.0091
3770.00,0.0092
3769.00,0.0091
3768.00,0.0091
3767.00,0.0091
3766.00,0.0091
3765.00,0.0091
3764.00,0.0091
3763.00,0.0092
3762.00,0.0093
3761.00,0.0094
3760.00,0.0094
3759.00,0.0094
3758.00,0.0094
3757.00,0.0094
3756.00,0.0094
3755.00,0.0095
3754.00,0.0095
3753.00,0.0095
3752.00,0.0096
3751.00,0.0097
3750.00,0.0097
3749.00,0.0096
3748.00,0.0096
3747.00,0.0096
3746.00,0.0096
3745.00,0.0096
3744.00,0.0096
3743.00,0.0096
3742.00,0.0097
3741.00,0.0098
3740.00,0.0098
3739.00,0.0098
3738.00,0.0099
3737.00,0.0099
3736.00,0.0099
3735.00,0.0099
3734.00,0.0099
3733.00,0.0099
3732.00,0.0099
3731.00,0.0100
3730.00,0.0101
3729.00,0.0101
3728.00,0.0102
3727.00,0.0102
3726.00,0.0102
3725.00,0.0102
3724.00,0.0103
3723.00,0.0104
3722.00,0.0104
3721.00,0.0105
3720.00,0.0105
3719.00,0.0105
3718.00,0.0106
3717.00,0.0107
3716.00,0.0107
3715.00,0.0108
3714.00,0.0109
3713.00,0.0110
3712.00,0.0111
3711.00,0.0113
3710.00,0.0114
3709.00,0.0115
3708.00,0.0115
3707.00,0.0116
3706.00,0.0117
3705.00,0.0118
3704.00,0.0119
3703.00,0.0120
3702.00,0.0121
3701.00,0.0122
3700.00,0.0123
3699.00,0.0124
3698.00,0.0126
3697.00,0.0127
3696.00,0.0129
3695.00,0.0131
3694.00,0.0133
3693.00,0.0134
3692.00,0.0136
3691.00,0.0138
3690.00,0.0140
3689.00,0.0143
3688.00,0.0145
3687.00,0.0147
3686.00,0.0149
3685.00,0.0151
3684.00,0.0153
3683.00,0.0155
3682.00,0.0158
3681.00,0.0160
3680.00,0.0161
3679.00,0.0163
3678.00,0.0165
3677.00,0.0169
3676.00,0.0173
3675.00,0.0178
3674.00,0.0183
3673.00,0.0187
3672.00,0.0191
3671.00,0.0196
3670.00,0.0200
3669.00,0.0205
3668.00,0.0209
3667.00,0.0212
3666.00,0.0216
3665.00,0.0220
3664.00,0.0224
3663.00,0.0227
3662.00,0.0231
3661.00,0.0236
3660.00,0.0240
3659.00,0.0245
3658.00,0.0251
3657.00,0.0257
3656.00,0.0263
3655.00,0.0268
3654.00,0.0273
3653.00,0.0277
3652.00,0.0282
3651.00,0.0288
3650.00,0.0297
3649.00,0.0306
3648.00,0.0316
3647.00,0.0324
3646.00,0.0331
3645.00,0.0336
3644.00,0.0342
3643.00,0.0347
3642.00,0.0353
3641.00,0.0359
3640.00,0.0365
3639.00,0.0371
3638.00,0.0377
3637.00,0.0384
3636.00,0.0390
3635.00,0.0397
3634.00,0.0403
3633.00,0.0409
3632.00,0.0414
3631.00,0.0421
3630.00,0.0430
3629.00,0.0442
3628.00,0.0453
3627.00,0.0462
3626.00,0.0469
3625.00,0.0475
3624.00,0.0481
3623.00,0.0486
3622.00,0.0491
3621.00,0.0498
3620.00,0.0505
3619.00,0.0514
3618.00,0.0522
3617.00,0.0530
3616.00,0.0537
3615.00,0.0545
3614.00,0.0552
3613.00,0.0559
3612.00,0.0567
3611.00,0.0574
3610.00,0.0582
3609.00,0.0591
3608.00,0.0600
3607.00,0.0609
3606.00,0.0616
3605.00,0.0623
3604.00,0.0628
3603.00,0.0634
3602.00,0.0641
3601.00,0.0648
3600.00,0.0655
3599.00,0.0663
3598.00,0.0670
3597.00,0.0677
3596.00,0.0684
3595.00,0.0692
3594.00,0.0700
3593.00,0.0707
3592.00,0.0713
3591.00,0.0718
3590.00,0.0723
3589.00,0.0731
3588.00,0.0740
3587.00,0.0751
3586.00,0.0761
3585.00,0.0770
3584.00,0.0777
3583.00,0.0782
3582.00,0.0788
3581.00,0.0794
3580.00,0.0800
3579.00,0.0807
3578.00,0.0814
3577.00,0.0821
3576.00,0.0828
3575.00,0.0835
3574.00,0.0842
3573.00,0.0848
3572.00,0.0854
3571.00,0.0859
3570.00,0.0864
3569.00,0.0871
3568.00,0.0880
3567.00,0.0891
3566.00,0.0902
3565.00,0.0912
3564.00,0.0920
3563.00,0.0927
3562.00,0.0933
3561.00,0.0938
3560.00,0.0944
3559.00,0.0950
3558.00,0.0957
3557.00,0.0963
3556.00,0.0969
3555.00,0.0975
3554.00,0.0982
3553.00,0.0989
3552.00,0.0996
3551.00,0.1003
3550.00,0.1010
3549.00,0.1016
3548.00,0.1023
3547.00,0.1030
3546.00,0.1039
3545.00,0.1047
3544.00,0.1055
3543.00,0.1063
3542.00,0.1070
3541.00,0.1076
3540.00,0.1082
3539.00,0.1088
3538.00,0.1094
3537.00,0.1100
3536.00,0.1107
3535.00,0.1114
3534.00,0.1121
3533.00,0.1127
3532.00,0.1134
3531.00,0.1140
3530.00,0.1147
3529.00,0.1154
3528.00,0.1162
3527.00,0.1170
3526.00,0.1177
3525.00,0.1185
3524.00,0.1193
3523.00,0.1200
3522.00,0.1207
3521.00,0.1214
3520.00,0.1221
3519.00,0.1228
3518.00,0.1234
3517.00,0.1241
3516.00,0.1247
3515.00,0.1254
3514.00,0.1260
3513.00,0.1266
3512.00,0.1273
3511.00,0.1279
3510.00,0.1286
3509.00,0.1293
3508.00,0.1300
3507.00,0.1307
3506.00,0.1314
3505.00,0.1321
3504.00,0.1329
3503.00,0.1337
3502.00,0.1345
3501.00,0.1352
3500.00,0.1359
3499.00,0.1365
3498.00,0.1372
3497.00,0.1379
3496.00,0.1385
3495.00,0.1391
3494.00,0.1397
3493.00,0.1403
3492.00,0.1409
3491.00,0.1415
3490.00,0.1421
3489.00,0.1428
3488.00,0.1435
3487.00,0.1442
3486.00,0.1448
3485.00,0.1454
3484.00,0.1460
3483.00,0.1467
3482.00,0.1475
3481.00,0.1482
3480.00,0.1489
3479.00,0.1495
3478.00,0.1501
3477.00,0.1506
3476.00,0.1512
3475.00,0.1518
3474.00,0.1525
3473.00,0.1532
3472.00,0.1538
3471.00,0.1545
3470.00,0.1552
3469.00,0.1558
3468.00,0.1565
3467.00,0.1570
3466.00,0.1575
3465.00,0.1580
3464.00,0.1586
3463.00,0.1591
3462.00,0.1597
3461.00,0.1604
3460.00,0.1610
3459.00,0.1615
3458.00,0.1621
3457.00,0.1626
3456.00,0.1632
3455.00,0.1637
3454.00,0.1643
3453.00,0.1648
3452.00,0.1653
3451.00,0.1658
3450.00,0.1663
3449.00,0.1668
3448.00,0.1674
3447.00,0.1680
3446.00,0.1686
3445.00,0.1691
3444.00,0.1696
3443.00,0.1701
3442.00,0.1706
3441.00,0.1711
3440.00,0.1717
3439.00,0.1722
3438.00,0.1728
3437.00,0.1733
3436.00,0.1738
3435.00,0.1742
3434.00,0.1745
3433.00,0.1749
3432.00,0.1754
3431.00,0.1758
3430.00,0.1763
3429.00,0.1767
3428.00,0.1771
3427.00,0.1774
3426.00,0.1778
3425.00,0.1781
3424.00,0.1784
3423.00,0.1787
3422.00,0.1790
3421.00,0.1794
3420.00,0.1798
3419.00,0.1801
3418.00,0.1804
3417.00,0.1807
3416.00,0.1811
3415.00,0.1814
3414.00,0.1818
3413.00,0.1822
3412.00,0.1824
3411.00,0.1827
3410.00,0.1829
3409.00,0.1830
3408.00,0.1832
3407.00,0.1834
3406.00,0.1836
3405.00,0.1839
3404.00,0.1842
3403.00,0.1844
3402.00,0.1847
3401.00,0.1848
3400.00,0.1850
3399.00,0.1851
3398.00,0.1852
3397.00,0.1852
3396.00,0.1853
3395.00,0.1854
3394.00,0.1855
3393.00,0.1856
3392.00,0.1857
3391.00,0.1857
3390.00,0.1856
3389.00,0.1855
3388.00,0.1854
3387.00,0.1854
3386.00,0.1854
3385.00,0.1854
3384.00,0.1854
3383.00,0.1854
3382.00,0.1853
3381.00,0.1853
3380.00,0.1853
3379.00,0.1852
3378.00,0.1851
3377.00,0.1850
3376.00,0.1849
3375.00,0.1848
3374.00,0.1847
3373.00,0.1846
3372.00,0.1845
3371.00,0.1844
3370.00,0.1842
3369.00,0.1840
3368.00,0.1838
3367.00,0.1836
3366.00,0.1833
3365.00,0.1831
3364.00,0.1828
3363.00,0.1826
3362.00,0.1823
3361.00,0.1820
3360.00,0.1817
3359.00,0.1814
3358.00,0.1811
3357.00,0.1808
3356.00,0.1805
3355.00,0.1802
3354.00,0.1799
3353.00,0.1796
3352.00,0.1793
3351.00,0.1789
3350.00,0.1785
3349.00,0.1781
3348.00,0.1777
3347.00,0.1773
3346.00,0.1769
3345.00,0.1765
3344.00,0.1761
3343.00,0.1757
3342.00,0.1753
3341.00,0.1750
3340.00,0.1746
3339.00,0.1742
3338.00,0.1738
3337.00,0.1733
3336.00,0.1729
3335.00,0.1724
3334.00,0.1719
3333.00,0.1714
3332.00,0.1709
3331.00,0.1705
3330.00,0.1701
3329.00,0.1697
3328.00,0.1693
3327.00,0.1688
3326.00,0.1684
3325.00,0.1680
3324.00,0.1675
3323.00,0.1670
3322.00,0.1665
3321.00,0.1660
3320.00,0.1655
3319.00,0.1650
3318.00,0.1645
3317.00,0.1641
3316.00,0.1636
3315.00,0.1631
3314.00,0.1627
3313.00,0.1623
3312.00,0.1618
3311.00,0.1614
3310.00,0.1610
3309.00,0.1606
3308.00,0.1602
3307.00,0.1598
3306.00,0.1594
3305.00,0.1589
3304.00,0.1585
3303.00,0.1580
3302.00,0.1576
3301.00,0.1572
3300.00,0.1568
3299.00,0.1564
3298.00,0.1560
3297.00,0.1556
3296.00,0.1552
3295.00,0.1548
3294.00,0.1544
3293.00,0.1540
3292.00,0.1536
3291.00,0.1532
3290.00,0.1528
3289.00,0.1524
3288.00,0.1520
3287.00,0.1516
3286.00,0.1512
3285.00,0.1508
3284.00,0.1504
3283.00,0.1499
3282.00,0.1495
3281.00,0.1491
3280.00,0.1487
3279.00,0.1482
3278.00,0.1478
3277.00,0.1474
3276.00,0.1471
3275.00,0.1467
3274.00,0.1464
3273.00,0.1461
3272.00,0.1458
3271.00,0.1454
3270.00,0.1449
3269.00,0.1445
3268.00,0.1440
3267.00,0.1436
3266.00,0.1432
3265.00,0.1427
3264.00,0.1424
3263.00,0.1419
3262.00,0.1415
3261.00,0.1411
3260.00,0.1406
3259.00,0.1402
3258.00,0.1397
3257.00,0.1393
3256.00,0.1389
3255.00,0.1384
3254.00,0.1379
3253.00,0.1375
3252.00,0.1370
3251.00,0.1366
3250.00,0.1361
3249.00,0.1356
3248.00,0.1351
3247.00,0.1346
3246.00,0.1341
3245.00,0.1336
3244.00,0.1332
3243.00,0.1327
3242.00,0.1323
3241.00,0.1318
3240.00,0.1312
3239.00,0.1306
3238.00,0.1301
3237.00,0.1296
3236.00,0.1290
3235.00,0.1285
3234.00,0.1279
3233.00,0.1274
3232.00,0.1269
3231.00,0.1264
3230.00,0.1258
3229.00,0.1252
3228.00,0.1246
3227.00,0.1240
3226.00,0.1234
3225.00,0.1228
3224.00,0.1222
3223.00,0.1216
3222.00,0.1210
3221.00,0.1204
3220.00,0.1198
3219.00,0.1193
3218.00,0.1187
3217.00,0.1180
3216.00,0.1173
3215.00,0.1167
3214.00,0.1160
3213.00,0.1154
3212.00,0.1147
3211.00,0.1141
3210.00,0.1135
3209.00,0.1129
3208.00,0.1122
3207.00,0.1116
3206.00,0.1109
3205.00,0.1103
3204.00,0.1096
3203.00,0.1089
3202.00,0.1083
3201.00,0.1076
3200.00,0.1069
3199.00,0.1063
3198.00,0.1056
3197.00,0.1050
3196.00,0.1043
3195.00,0.1037
3194.00,0.1030
3193.00,0.1024
3192.00,0.1017
3191.00,0.1010
3190.00,0.1003
3189.00,0.0996
3188.00,0.0990
3187.00,0.0983
3186.00,0.0976
3185.00,0.0970
3184.00,0.0963
3183.00,0.0956
3182.00,0.0950
3181.00,0.0943
3180.00,0.0937
3179.00,0.0931
3178.00,0.0924
3177.00,0.0918
3176.00,0.0912
3175.00,0.0906
3174.00,0.0901
3173.00,0.0894
3172.00,0.0888
3171.00,0.0881
3170.00,0.0875
3169.00,0.0868
3168.00,0.0862
3167.00,0.0855
3166.00,0.0849
3165.00,0.0843
3164.00,0.0838
3163.00,0.0832
3162.00,0.0826
3161.00,0.0821
3160.00,0.0815
3159.00,0.0809
3158.00,0.0803
3157.00,0.0797
3156.00,0.0792
3155.00,0.0786
3154.00,0.0781
3153.00,0.0775
3152.00,0.0769
3151.00,0.0764
3150.00,0.0758
3149.00,0.0753
3148.00,0.0747
3147.00,0.0741
3146.00,0.0736
3145.00,0.0730
3144.00,0.0725
3143.00,0.0720
3142.00,0.0715
3141.00,0.0710
3140.00,0.0705
3139.00,0.0700
3138.00,0.0695
3137.00,0.0690
3136.00,0.0685
3135.00,0.0680
3134.00,0.0675
3133.00,0.0671
3132.00,0.0666
3131.00,0.0661
3130.00,0.0656
3129.00,0.0651
3128.00,0.0646
3127.00,0.0642
3126.00,0.0637
3125.00,0.0633
3124.00,0.0628
3123.00,0.0624
3122.00,0.0620
3121.00,0.0616
3120.00,0.0611
3119.00,0.0607
3118.00,0.0603
3117.00,0.0598
3116.00,0.0594
3115.00,0.0590
3114.00,0.0586
3113.00,0.0581
3112.00,0.0577
3111.00,0.0573
3110.00,0.0569
3109.00,0.0565
3108.00,0.0561
3107.00,0.0557
3106.00,0.0554
3105.00,0.0550
3104.00,0.0547
3103.00,0.0543
3102.00,0.0539
3101.00,0.0535
3100.00,0.0531
3099.00,0.0528
3098.00,0.0524
3097.00,0.0520
3096.00,0.0517
3095.00,0.0513
3094.00,0.0510
3093.00,0.0506
3092.00,0.0502
3091.00,0.0499
3090.00,0.0496
3089.00,0.0493
3088.00,0.0490
3087.00,0.0486
3086.00,0.0483
3085.00,0.0479
3084.00,0.0476
3083.00,0.0473
3082.00,0.0471
3081.00,0.0468
3080.00,0.0465
3079.00,0.0462
3078.00,0.0459
3077.00,0.0456
3076.00,0.0453
3075.00,0.0450
3074.00,0.0447
3073.00,0.0444
3072.00,0.0442
3071.00,0.0439
3070.00,0.0436
3069.00,0.0433
3068.00,0.0430
3067.00,0.0427
3066.00,0.0424
3065.00,0.0422
3064.00,0.0420
3063.00,0.0417
3062.00,0.0415
3061.00,0.0412
3060.00,0.0409
3059.00,0.0406
3058.00,0.0403
3057.00,0.0400
3056.00,0.0398
3055.00,0.0396
3054.00,0.0393
3053.00,0.0391
3052.00,0.0389
3051.00,0.0386
3050.00,0.0384
3049.00,0.0381
3048.00,0.0379
3047.00,0.0376
3046.00,0.0374
3045.00,0.0371
3044.00,0.0369
3043.00,0.0367
3042.00,0.0365
3041.00,0.0364
3040.00,0.0362
3039.00,0.0360
3038.00,0.0358
3037.00,0.0356
3036.00,0.0354
3035.00,0.0352
3034.00,0.0350
3033.00,0.0348
3032.00,0.0346
3031.00,0.0344
3030.00,0.0342
3029.00,0.0341
3028.00,0.0339
3027.00,0.0338
3026.00,0.0336
3025.00,0.0334
3024.00,0.0332
3023.00,0.0330
3022.00,0.0328
3021.00,0.0326
3020.00,0.0324
3019.00,0.0323
3018.00,0.0321
3017.00,0.0320
3016.00,0.0319
3015.00,0.0318
3014.00,0.0317
3013.00,0.0315
3012.00,0.0314
3011.00,0.0313
3010.00,0.0312
3009.00,0.0311
3008.00,0.0310
3007.00,0.0309
3006.00,0.0307
3005.00,0.0306
3004.00,0.0305
3003.00,0.0303
3002.00,0.0302
3001.00,0.0300
3000.00,0.0300
2999.00,0.0299
2998.00,0.0298
2997.00,0.0297
2996.00,0.0296
2995.00,0.0295
2994.00,0.0294
2993.00,0.0293
2992.00,0.0292
2991.00,0.0292
2990.00,0.0292
2989.00,0.0291
2988.00,0.0291
2987.00,0.0290
2986.00,0.0290
2985.00,0.0290
2984.00,0.0290
2983.00,0.0290
2982.00,0.0290
2981.00,0.0290
2980.00,0.0289
2979.00,0.0289
2978.00,0.0289
2977.00,0.0289
2976.00,0.0290
2975.00,0.0290
2974.00,0.0290
2973.00,0.0291
2972.00,0.0291
2971.00,0.0291
2970.00,0.0292
2969.00,0.0292
2968.00,0.0292
2967.00,0.0292
2966.00,0.0292
2965.00,0.0292
2964.00,0.0293
2963.00,0.0293
2962.00,0.0294
2961.00,0.0294
2960.00,0.0294
2959.00,0.0294
2958.00,0.0294
2957.00,0.0294
2956.00,0.0294
2955.00,0.0293
2954.00,0.0293
2953.00,0.0292
2952.00,0.0292
2951.00,0.0291
2950.00,0.0291
2949.00,0.0290
2948.00,0.0290
2947.00,0.0290
2946.00,0.0290
2945.00,0.0290
2944.00,0.0291
2943.00,0.0291
2942.00,0.0292
2941.00,0.0293
2940.00,0.0294
2939.00,0.0295
2938.00,0.0295
2937.00,0.0296
2936.00,0.0298
2935.00,0.0300
2934.00,0.0302
2933.00,0.0304
2932.00,0.0306
2931.00,0.0308
2930.00,0.0310
2929.00,0.0312
2928.00,0.0314
2927.00,0.0316
2926.00,0.0318
2925.00,0.0319
2924.00,0.0321
2923.00,0.0323
2922.00,0.0324
2921.00,0.0325
2920.00,0.0326
2919.00,0.0325
2918.00,0.0323
2917.00,0.0320
2916.00,0.0316
2915.00,0.0312
2914.00,0.0307
2913.00,0.0303
2912.00,0.0298
2911.00,0.0294
2910.00,0.0290
2909.00,0.0286
2908.00,0.0283
2907.00,0.0281
2906.00,0.0278
2905.00,0.0276
2904.00,0.0274
2903.00,0.0271
2902.00,0.0269
2901.00,0.0267
2900.00,0.0265
2899.00,0.0263
2898.00,0.0261
2897.00,0.0259
2896.00,0.0257
2895.00,0.0256
2894.00,0.0254
2893.00,0.0253
2892.00,0.0251
2891.00,0.0249
2890.00,0.0247
2889.00,0.0246
2888.00,0.0244
2887.00,0.0242
2886.00,0.0240
2885.00,0.0239
2884.00,0.0237
2883.00,0.0236
2882.00,0.0234
2881.00,0.0233
2880.00,0.0232
2879.00,0.0231
2878.00,0.0231
2877.00,0.0230
2876.00,0.0229
2875.00,0.0228
2874.00,0.0227
2873.00,0.0226
2872.00,0.0225
2871.00,0.0224
2870.00,0.0223
2869.00,0.0222
2868.00,0.0221
2867.00,0.0220
2866.00,0.0220
2865.00,0.0219
2864.00,0.0218
2863.00,0.0218
2862.00,0.0219
2861.00,0.0220
2860.00,0.0221
2859.00,0.0223
2858.00,0.0224
2857.00,0.0225
2856.00,0.0227
2855.00,0.0228
2854.00,0.0230
2853.00,0.0231
2852.00,0.0231
2851.00,0.0230
2850.00,0.0229
2849.00,0.0226
2848.00,0.0222
2847.00,0.0217
2846.00,0.0212
2845.00,0.0206
2844.00,0.0201
2843.00,0.0197
2842.00,0.0194
2841.00,0.0191
2840.00,0.0189
2839.00,0.0187
2838.00,0.0185
2837.00,0.0183
2836.00,0.0181
2835.00,0.0179
2834.00,0.0178
2833.00,0.0177
2832.00,0.0176
2831.00,0.0175
2830.00,0.0174
2829.00,0.0173
2828.00,0.0172
2827.00,0.0171
2826.00,0.0170
2825.00,0.0169
2824.00,0.0168
2823.00,0.0168
2822.00,0.0167
2821.00,0.0167
2820.00,0.0166
2819.00,0.0165
2818.00,0.0164
2817.00,0.0163
2816.00,0.0162
2815.00,0.0162
2814.00,0.0161
2813.00,0.0161
2812.00,0.0160
2811.00,0.0159
2810.00,0.0159
2809.00,0.0158
2808.00,0.0157
2807.00,0.0157
2806.00,0.0156
2805.00,0.0156
2804.00,0.0156
2803.00,0.0155
2802.00,0.0154
2801.00,0.0154
2800.00,0.0153
2799.00,0.0153
2798.00,0.0153
2797.00,0.0152
2796.00,0.0152
2795.00,0.0151
2794.00,0.0151
2793.00,0.0150
2792.00,0.0150
2791.00,0.0149
2790.00,0.0149
2789.00,0.0148
2788.00,0.0148
2787.00,0.0147
2786.00,0.0146
2785.00,0.0146
2784.00,0.0146
2783.00,0.0146
2782.00,0.0145
2781.00,0.0145
2780.00,0.0145
2779.00,0.0144
2778.00,0.0144
2777.00,0.0144
2776.00,0.0143
2775.00,0.0142
2774.00,0.0142
2773.00,0.0141
2772.00,0.0141
2771.00,0.0141
2770.00,0.0141
2769.00,0.0140
2768.00,0.0140
2767.00,0.0140
2766.00,0.0139
2765.00,0.0139
2764.00,0.0139
2763.00,0.0138
2762.00,0.0138
2761.00,0.0137
2760.00,0.0137
2759.00,0.0137
2758.00,0.0137
2757.00,0.0137
2756.00,0.0137
2755.00,0.0136
2754.00,0.0136
2753.00,0.0136
2752.00,0.0136
2751.00,0.0135
2750.00,0.0135
2749.00,0.0135
2748.00,0.0135
2747.00,0.0134
2746.00,0.0134
2745.00,0.0134
2744.00,0.0134
2743.00,0.0133
2742.00,0.0133
2741.00,0.0133
2740.00,0.0132
2739.00,0.0132
2738.00,0.0132
2737.00,0.0132
2736.00,0.0132
2735.00,0.0131
2734.00,0.0131
2733.00,0.0131
2732.00,0.0130
2731.00,0.0130
2730.00,0.0130
2729.00,0.0130
2728.00,0.0129
2727.00,0.0129
2726.00,0.0129
2725.00,0.0129
2724.00,0.0128
2723.00,0.0128
2722.00,0.0128
2721.00,0.0128
2720.00,0.0128
2719.00,0.0128
2718.00,0.0127
2717.00,0.0127
2716.00,0.0127
2715.00,0.0126
2714.00,0.0126
2713.00,0.0125
2712.00,0.0125
2711.00,0.0125
2710.00,0.0125
2709.00,0.0125
2708.00,0.0125
2707.00,0.0125
2706.00,0.0124
2705.00,0.0124
2704.00,0.0124
2703.00,0.0124
2702.00,0.0124
2701.00,0.0124
2700.00,0.0124
2699.00,0.0123
2698.00,0.0123
2697.00,0.0123
2696.00,0.0122
2695.00,0.0122
2694.00,0.0122
2693.00,0.0122
2692.00,0.0122
2691.00,0.0121
2690.00,0.0121
2689.00,0.0121
2688.00,0.0121
2687.00,0.0121
2686.00,0.0121
2685.00,0.0121
2684.00,0.0121
2683.00,0.0120
2682.00,0.0120
2681.00,0.0120
2680.00,0.0120
2679.00,0.0120
2678.00,0.0120
2677.00,0.0120
2676.00,0.0119
2675.00,0.0119
2674.00,0.0118
2673.00,0.0118
2672.00,0.0118
2671.00,0.0118
2670.00,0.0118
2669.00,0.0118
2668.00,0.0118
2667.00,0.0118
2666.00,0.0118
2665.00,0.0119
2664.00,0.0119
2663.00,0.0120
2662.00,0.0121
2661.00,0.0121
2660.00,0.0121
2659.00,0.0121
2658.00,0.0121
2657.00,0.0122
2656.00,0.0122
2655.00,0.0122
2654.00,0.0122
2653.00,0.0121
2652.00,0.0121
2651.00,0.0121
2650.00,0.0120
2649.00,0.0120
2648.00,0.0120
2647.00,0.0120
2646.00,0.0120
2645.00,0.0120
2644.00,0.0119
2643.00,0.0119
2642.00,0.0119
2641.00,0.0119
2640.00,0.0118
2639.00,0.0118
2638.00,0.0118
2637.00,0.0117
2636.00,0.0117
2635.00,0.0117
2634.00,0.0116
2633.00,0.0116
2632.00,0.0116
2631.00,0.0115
2630.00,0.0115
2629.00,0.0115
2628.00,0.0115
2627.00,0.0115
2626.00,0.0115
2625.00,0.0114
2624.00,0.0114
2623.00,0.0113
2622.00,0.0112
2621.00,0.0112
2620.00,0.0112
2619.00,0.0112
2618.00,0.0112
2617.00,0.0111
2616.00,0.0111
2615.00,0.0110
2614.00,0.0110
2613.00,0.0109
2612.00,0.0109
2611.00,0.0108
2610.00,0.0108
2609.00,0.0107
2608.00,0.0108
2607.00,0.0108
2606.00,0.0107
2605.00,0.0107
2604.00,0.0106
2603.00,0.0106
2602.00,0.0106
2601.00,0.0106
2600.00,0.0106
2599.00,0.0106
2598.00,0.0106
2597.00,0.0105
2596.00,0.0105
2595.00,0.0105
2594.00,0.0105
2593.00,0.0105
2592.00,0.0104
2591.00,0.0104
2590.00,0.0104
2589.00,0.0104
2588.00,0.0104
2587.00,0.0104
2586.00,0.0104
2585.00,0.0104
2584.00,0.0104
2583.00,0.0104
2582.00,0.0104
2581.00,0.0103
2580.00,0.0103
2579.00,0.0102
2578.00,0.0102
2577.00,0.0102
2576.00,0.0102
2575.00,0.0102
2574.00,0.0101
2573.00,0.0101
2572.00,0.0101
2571.00,0.0100
2570.00,0.0100
2569.00,0.0099
2568.00,0.0099
2567.00,0.0098
2566.00,0.0098
2565.00,0.0098
2564.00,0.0099
2563.00,0.0099
2562.00,0.0099
2561.00,0.0099
2560.00,0.0098
2559.00,0.0098
2558.00,0.0098
2557.00,0.0098
2556.00,0.0098
2555.00,0.0098
2554.00,0.0097
2553.00,0.0097
2552.00,0.0098
2551.00,0.0098
2550.00,0.0098
2549.00,0.0098
2548.00,0.0098
2547.00,0.0098
2546.00,0.0098
2545.00,0.0097
2544.00,0.0097
2543.00,0.0097
2542.00,0.0097
2541.00,0.0097
2540.00,0.0097
2539.00,0.0098
2538.00,0.0098
2537.00,0.0098
2536.00,0.0097
2535.00,0.0097
2534.00,0.0097
2533.00,0.0097
2532.00,0.0097
2531.00,0.0098
2530.00,0.0098
2529.00,0.0098
2528.00,0.0097
2527.00,0.0096
2526.00,0.0095
2525.00,0.0095
2524.00,0.0096
2523.00,0.0097
2522.00,0.0097
2521.00,0.0096
2520.00,0.0095
2519.00,0.0095
2518.00,0.0095
2517.00,0.0096
2516.00,0.0096
2515.00,0.0096
2514.00,0.0096
2513.00,0.0096
2512.00,0.0096
2511.00,0.0096
2510.00,0.0096
2509.00,0.0095
2508.00,0.0095
2507.00,0.0095
2506.00,0.0095
2505.00,0.0095
2504.00,0.0096
2503.00,0.0096
2502.00,0.0095
2501.00,0.0095
2500.00,0.0095
2499.00,0.0095
2498.00,0.0095
2497.00,0.0096
2496.00,0.0096
2495.00,0.0096
2494.00,0.0096
2493.00,0.0096
2492.00,0.0095
2491.00,0.0095
2490.00,0.0094
2489.00,0.0094
2488.00,0.0094
2487.00,0.0093
2486.00,0.0094
2485.00,0.0094
2484.00,0.0095
2483.00,0.0095
2482.00,0.0095
2481.00,0.0095
2480.00,0.0096
2479.00,0.0096
2478.00,0.0096
2477.00,0.0095
2476.00,0.0095
2475.00,0.0094
2474.00,0.0094
2473.00,0.0093
2472.00,0.0093
2471.00,0.0093
2470.00,0.0094
2469.00,0.0095
2468.00,0.0095
2467.00,0.0095
2466.00,0.0095
2465.00,0.0095
2464.00,0.0095
2463.00,0.0095
2462.00,0.0095
2461.00,0.0095
2460.00,0.0096
2459.00,0.0096
2458.00,0.0096
2457.00,0.0096
2456.00,0.0096
2455.00,0.0096
2454.00,0.0096
2453.00,0.0096
2452.00,0.0096
2451.00,0.0096
2450.00,0.0096
2449.00,0.0095
2448.00,0.0095
2447.00,0.0094
2446.00,0.0095
2445.00,0.0095
2444.00,0.0096
2443.00,0.0096
2442.00,0.0096
2441.00,0.0096
2440.00,0.0096
2439.00,0.0096
2438.00,0.0095
2437.00,0.0095
2436.00,0.0095
2435.00,0.0094
2434.00,0.0094
2433.00,0.0094
2432.00,0.0093
2431.00,0.0094
2430.00,0.0094
2429.00,0.0095
2428.00,0.0095
2427.00,0.0095
2426.00,0.0095
2425.00,0.0095
2424.00,0.0095
2423.00,0.0095
2422.00,0.0094
2421.00,0.0094
2420.00,0.0094
2419.00,0.0094
2418.00,0.0094
2417.00,0.0094
2416.00,0.0094
2415.00,0.0095
2414.00,0.0095
2413.00,0.0096
2412.00,0.0096
2411.00,0.0096
2410.00,0.0096
2409.00,0.0096
2408.00,0.0095
2407.00,0.0094
2406.00,0.0093
2405.00,0.0093
2404.00,0.0094
2403.00,0.0094
2402.00,0.0095
2401.00,0.0095
2400.00,0.0095
2399.00,0.0095
2398.00,0.0094
2397.00,0.0094
2396.00,0.0095
2395.00,0.0095
2394.00,0.0095
2393.00,0.0095
2392.00,0.0095
2391.00,0.0095
2390.00,0.0095
2389.00,0.0095
2388.00,0.0095
2387.00,0.0095
2386.00,0.0094
2385.00,0.0093
2384.00,0.0092
2383.00,0.0091
2382.00,0.0090
2381.00,0.0089
2380.00,0.0088
2379.00,0.0087
2378.00,0.0086
2377.00,0.0086
2376.00,0.0087
2375.00,0.0088
2374.00,0.0089
2373.00,0.0090
2372.00,0.0090
2371.00,0.0090
2370.00,0.0090
2369.00,0.0089
2368.00,0.0088
2367.00,0.0087
2366.00,0.0087
2365.00,0.0088
2364.00,0.0089
2363.00,0.0090
2362.00,0.0091
2361.00,0.0090
2360.00,0.0099
2359.00,0.0101
2358.00,0.0101
2357.00,0.0101
2356.00,0.0102
2355.00,0.0103
2354.00,0.0103
2353.00,0.0104
2352.00,0.0105
2351.00,0.0105
2350.00,0.0106
2349.00,0.0106
2348.00,0.0105
2347.00,0.0105
2346.00,0.0106
2345.00,0.0107
2344.00,0.0108
2343.00,0.0108
2342.00,0.0109
2341.00,0.0108
2340.00,0.0109
2339.00,0.0104
2338.00,0.0104
2337.00,0.0105
2336.00,0.0105
2335.00,0.0105
2334.00,0.0105
2333.00,0.0105
2332.00,0.0105
2331.00,0.0106
2330.00,0.0107
2329.00,0.0108
2328.00,0.0110
2327.00,0.0114
2326.00,0.0119
2325.00,0.0124
2324.00,0.0128
2323.00,0.0129
2322.00,0.0128
2321.00,0.0126
2320.00,0.0124
2319.00,0.0122
2318.00,0.0120
2317.00,0.0119
2316.00,0.0118
2315.00,0.0118
2314.00,0.0117
2313.00,0.0116
2312.00,0.0115
2311.00,0.0115
2310.00,0.0114
2309.00,0.0114
2308.00,0.0114
2307.00,0.0115
2306.00,0.0116
2305.00,0.0116
2304.00,0.0117
2303.00,0.0119
2302.00,0.0120
2301.00,0.0121
2300.00,0.0122
2299.00,0.0123
2298.00,0.0123
2297.00,0.0124
2296.00,0.0125
2295.00,0.0126
2294.00,0.0127
2293.00,0.0128
2292.00,0.0129
2291.00,0.0131
2290.00,0.0132
2289.00,0.0134
2288.00,0.0135
2287.00,0.0136
2286.00,0.0136
2285.00,0.0135
2284.00,0.0135
2283.00,0.0133
2282.00,0.0132
2281.00,0.0131
2280.00,0.0131
2279.00,0.0131
2278.00,0.0131
2277.00,0.0130
2276.00,0.0130
2275.00,0.0129
2274.00,0.0129
2273.00,0.0129
2272.00,0.0130
2271.00,0.0130
2270.00,0.0129
2269.00,0.0129
2268.00,0.0129
2267.00,0.0129
2266.00,0.0128
2265.00,0.0126
2264.00,0.0124
2263.00,0.0121
2262.00,0.0119
2261.00,0.0119
2260.00,0.0119
2259.00,0.0121
2258.00,0.0123
2257.00,0.0124
2256.00,0.0123
2255.00,0.0122
2254.00,0.0120
2253.00,0.0119
2252.00,0.0119
2251.00,0.0121
2250.00,0.0123
2249.00,0.0124
2248.00,0.0124
2247.00,0.0124
2246.00,0.0123
2245.00,0.0123
2244.00,0.0125
2243.00,0.0126
2242.00,0.0126
2241.00,0.0126
2240.00,0.0126
2239.00,0.0127
2238.00,0.0127
2237.00,0.0126
2236.00,0.0125
2235.00,0.0124
2234.00,0.0124
2233.00,0.0123
2232.00,0.0123
2231.00,0.0123
2230.00,0.0124
2229.00,0.0125
2228.00,0.0126
2227.00,0.0126
2226.00,0.0126
2225.00,0.0126
2224.00,0.0125
2223.00,0.0125
2222.00,0.0124
2221.00,0.0124
2220.00,0.0124
2219.00,0.0124
2218.00,0.0124
2217.00,0.0124
2216.00,0.0124
2215.00,0.0124
2214.00,0.0124
2213.00,0.0124
2212.00,0.0125
2211.00,0.0124
2210.00,0.0123
2209.00,0.0122
2208.00,0.0122
2207.00,0.0122
2206.00,0.0123
2205.00,0.0123
2204.00,0.0124
2203.00,0.0124
2202.00,0.0125
2201.00,0.0124
2200.00,0.0124
2199.00,0.0124
2198.00,0.0126
2197.00,0.0129
2196.00,0.0131
2195.00,0.0132
2194.00,0.0131
2193.00,0.0131
2192.00,0.0130
2191.00,0.0130
2190.00,0.0129
2189.00,0.0130
2188.00,0.0131
2187.00,0.0132
2186.00,0.0133
2185.00,0.0133
2184.00,0.0134
2183.00,0.0133
2182.00,0.0130
2181.00,0.0127
2180.00,0.0124
2179.00,0.0121
2178.00,0.0119
2177.00,0.0118
2176.00,0.0119
2175.00,0.0122
2174.00,0.0126
2173.00,0.0131
2172.00,0.0136
2171.00,0.0138
2170.00,0.0139
2169.00,0.0138
2168.00,0.0137
2167.00,0.0137
2166.00,0.0139
2165.00,0.0141
2164.00,0.0143
2163.00,0.0144
2162.00,0.0142
2161.00,0.0136
2160.00,0.0124
2159.00,0.0108
2158.00,0.0093
2157.00,0.0083
2156.00,0.0081
2155.00,0.0083
2154.00,0.0086
2153.00,0.0089
2152.00,0.0092
2151.00,0.0095
2150.00,0.0098
2149.00,0.0102
2148.00,0.0106
2147.00,0.0108
2146.00,0.0109
2145.00,0.0108
2144.00,0.0107
2143.00,0.0106
2142.00,0.0106
2141.00,0.0107
2140.00,0.0110
2139.00,0.0113
2138.00,0.0115
2137.00,0.0115
2136.00,0.0112
2135.00,0.0108
2134.00,0.0106
2133.00,0.0107
2132.00,0.0110
2131.00,0.0114
2130.00,0.0118
2129.00,0.0121
2128.00,0.0124
2127.00,0.0126
2126.00,0.0128
2125.00,0.0130
2124.00,0.0132
2123.00,0.0133
2122.00,0.0134
2121.00,0.0136
2120.00,0.0139
2119.00,0.0141
2118.00,0.0143
2117.00,0.0145
2116.00,0.0148
2115.00,0.0150
2114.00,0.0151
2113.00,0.0151
2112.00,0.0151
2111.00,0.0150
2110.00,0.0149
2109.00,0.0149
2108.00,0.0149
2107.00,0.0150
2106.00,0.0150
2105.00,0.0150
2104.00,0.0150
2103.00,0.0149
2102.00,0.0149
2101.00,0.0148
2100.00,0.0148
2099.00,0.0147
2098.00,0.0147
2097.00,0.0147
2096.00,0.0146
2095.00,0.0143
2094.00,0.0141
2093.00,0.0140
2092.00,0.0141
2091.00,0.0144
2090.00,0.0147
2089.00,0.0149
2088.00,0.0150
2087.00,0.0149
2086.00,0.0148
2085.00,0.0147
2084.00,0.0147
2083.00,0.0147
2082.00,0.0147
2081.00,0.0148
2080.00,0.0148
2079.00,0.0148
2078.00,0.0148
2077.00,0.0147
2076.00,0.0146
2075.00,0.0144
2074.00,0.0144
2073.00,0.0144
2072.00,0.0146
2071.00,0.0146
2070.00,0.0145
2069.00,0.0143
2068.00,0.0141
2067.00,0.0139
2066.00,0.0137
2065.00,0.0137
2064.00,0.0138
2063.00,0.0139
2062.00,0.0140
2061.00,0.0139
2060.00,0.0138
2059.00,0.0137
2058.00,0.0137
2057.00,0.0137
2056.00,0.0137
2055.00,0.0136
2054.00,0.0136
2053.00,0.0138
2052.00,0.0142
2051.00,0.0146
2050.00,0.0147
2049.00,0.0145
2048.00,0.0142
2047.00,0.0139
2046.00,0.0135
2045.00,0.0133
2044.00,0.0131
2043.00,0.0130
2042.00,0.0129
2041.00,0.0129
2040.00,0.0130
2039.00,0.0130
2038.00,0.0129
2037.00,0.0128
2036.00,0.0127
2035.00,0.0125
2034.00,0.0120
2033.00,0.0115
2032.00,0.0111
2031.00,0.0108
2030.00,0.0107
2029.00,0.0106
2028.00,0.0107
2027.00,0.0108
2026.00,0.0108
2025.00,0.0108
2024.00,0.0108
2023.00,0.0109
2022.00,0.0109
2021.00,0.0110
2020.00,0.0110
2019.00,0.0110
2018.00,0.0109
2017.00,0.0108
2016.00,0.0110
2015.00,0.0113
2014.00,0.0116
2013.00,0.0116
2012.00,0.0115
2011.00,0.0113
2010.00,0.0111
2009.00,0.0108
2008.00,0.0105
2007.00,0.0101
2006.00,0.0096
2005.00,0.0093
2004.00,0.0094
2003.00,0.0098
2002.00,0.0102
2001.00,0.0106
2000.00,0.0109
1999.00,0.0111
1998.00,0.0112
1997.00,0.0113
1996.00,0.0114
1995.00,0.0116
1994.00,0.0118
1993.00,0.0119
1992.00,0.0119
1991.00,0.0117
1990.00,0.0115
1989.00,0.0115
1988.00,0.0116
1987.00,0.0117
1986.00,0.0118
1985.00,0.0118
1984.00,0.0119
1983.00,0.0121
1982.00,0.0125
1981.00,0.0129
1980.00,0.0131
1979.00,0.0128
1978.00,0.0121
1977.00,0.0113
1976.00,0.0106
1975.00,0.0101
1974.00,0.0099
1973.00,0.0098
1972.00,0.0099
1971.00,0.0100
1970.00,0.0099
1969.00,0.0099
1968.00,0.0100
1967.00,0.0100
1966.00,0.0099
1965.00,0.0097
1964.00,0.0095
1963.00,0.0095
1962.00,0.0096
1961.00,0.0096
1960.00,0.0095
1959.00,0.0093
1958.00,0.0092
1957.00,0.0093
1956.00,0.0096
1955.00,0.0098
1954.00,0.0100
1953.00,0.0101
1952.00,0.0101
1951.00,0.0100
1950.00,0.0100
1949.00,0.0100
1948.00,0.0101
1947.00,0.0102
1946.00,0.0102
1945.00,0.0102
1944.00,0.0103
1943.00,0.0102
1942.00,0.0100
1941.00,0.0099
1940.00,0.0098
1939.00,0.0097
1938.00,0.0098
1937.00,0.0099
1936.00,0.0101
1935.00,0.0102
1934.00,0.0102
1933.00,0.0101
1932.00,0.0101
1931.00,0.0101
1930.00,0.0101
1929.00,0.0101
1928.00,0.0101
1927.00,0.0100
1926.00,0.0100
1925.00,0.0100
1924.00,0.0101
1923.00,0.0102
1922.00,0.0103
1921.00,0.0104
1920.00,0.0106
1919.00,0.0108
1918.00,0.0109
1917.00,0.0109
1916.00,0.0108
1915.00,0.0107
1914.00,0.0106
1913.00,0.0106
1912.00,0.0106
1911.00,0.0106
1910.00,0.0107
1909.00,0.0107
1908.00,0.0107
1907.00,0.0107
1906.00,0.0106
1905.00,0.0107
1904.00,0.0107
1903.00,0.0108
1902.00,0.0107
1901.00,0.0106
1900.00,0.0105
1899.00,0.0104
1898.00,0.0104
1897.00,0.0105
1896.00,0.0106
1895.00,0.0106
1894.00,0.0106
1893.00,0.0106
1892.00,0.0107
1891.00,0.0108
1890.00,0.0109
1889.00,0.0109
1888.00,0.0108
1887.00,0.0108
1886.00,0.0107
1885.00,0.0106
1884.00,0.0106
1883.00,0.0107
1882.00,0.0107
1881.00,0.0107
1880.00,0.0108
1879.00,0.0108
1878.00,0.0108
1877.00,0.0108
1876.00,0.0108
1875.00,0.0108
1874.00,0.0108
1873.00,0.0108
1872.00,0.0108
1871.00,0.0108
1870.00,0.0108
1869.00,0.0108
1868.00,0.0108
1867.00,0.0108
1866.00,0.0108
1865.00,0.0108
1864.00,0.0108
1863.00,0.0109
1862.00,0.0109
1861.00,0.0109
1860.00,0.0110
1859.00,0.0110
1858.00,0.0109
1857.00,0.0109
1856.00,0.0109
1855.00,0.0109
1854.00,0.0109
1853.00,0.0108
1852.00,0.0108
1851.00,0.0109
1850.00,0.0109
1849.00,0.0110
1848.00,0.0110
1847.00,0.0111
1846.00,0.0111
1845.00,0.0110
1844.00,0.0109
1843.00,0.0109
1842.00,0.0109
1841.00,0.0110
1840.00,0.0111
1839.00,0.0112
1838.00,0.0112
1837.00,0.0112
1836.00,0.0112
1835.00,0.0112
1834.00,0.0113
1833.00,0.0113
1832.00,0.0114
1831.00,0.0114
1830.00,0.0114
1829.00,0.0113
1828.00,0.0113
1827.00,0.0114
1826.00,0.0115
1825.00,0.0116
1824.00,0.0117
1823.00,0.0117
1822.00,0.0117
1821.00,0.0117
1820.00,0.0117
1819.00,0.0116
1818.00,0.0115
1817.00,0.0115
1816.00,0.0115
1815.00,0.0116
1814.00,0.0117
1813.00,0.0119
1812.00,0.0120
1811.00,0.0121
1810.00,0.0121
1809.00,0.0121
1808.00,0.0122
1807.00,0.0123
1806.00,0.0124
1805.00,0.0125
1804.00,0.0126
1803.00,0.0127
1802.00,0.0128
1801.00,0.0129
1800.00,0.0129
1799.00,0.0128
1798.00,0.0129
1797.00,0.0130
1796.00,0.0131
1795.00,0.0133
1794.00,0.0133
1793.00,0.0133
1792.00,0.0133
1791.00,0.0133
1790.00,0.0133
1789.00,0.0134
1788.00,0.0135
1787.00,0.0136
1786.00,0.0137
1785.00,0.0137
1784.00,0.0138
1783.00,0.0139
1782.00,0.0140
1781.00,0.0141
1780.00,0.0142
1779.00,0.0142
1778.00,0.0142
1777.00,0.0142
1776.00,0.0143
1775.00,0.0145
1774.00,0.0146
1773.00,0.0148
1772.00,0.0148
1771.00,0.0148
1770.00,0.0148
1769.00,0.0149
1768.00,0.0150
1767.00,0.0151
1766.00,0.0152
1765.00,0.0153
1764.00,0.0155
1763.00,0.0156
1762.00,0.0157
1761.00,0.0158
1760.00,0.0160
1759.00,0.0162
1758.00,0.0164
1757.00,0.0166
1756.00,0.0168
1755.00,0.0170
1754.00,0.0173
1753.00,0.0176
1752.00,0.0179
1751.00,0.0182
1750.00,0.0184
1749.00,0.0186
1748.00,0.0189
1747.00,0.0191
1746.00,0.0193
1745.00,0.0196
1744.00,0.0199
1743.00,0.0201
1742.00,0.0202
1741.00,0.0204
1740.00,0.0205
1739.00,0.0206
1738.00,0.0208
1737.00,0.0210
1736.00,0.0214
1735.00,0.0217
1734.00,0.0219
1733.00,0.0221
1732.00,0.0224
1731.00,0.0227
1730.00,0.0230
1729.00,0.0232
1728.00,0.0233
1727.00,0.0235
1726.00,0.0238
1725.00,0.0240
1724.00,0.0244
1723.00,0.0247
1722.00,0.0250
1721.00,0.0253
1720.00,0.0257
1719.00,0.0260
1718.00,0.0265
1717.00,0.0270
1716.00,0.0274
1715.00,0.0278
1714.00,0.0280
1713.00,0.0283
1712.00,0.0288
1711.00,0.0292
1710.00,0.0297
1709.00,0.0301
1708.00,0.0307
1707.00,0.0312
1706.00,0.0318
1705.00,0.0323
1704.00,0.0329
1703.00,0.0334
1702.00,0.0338
1701.00,0.0345
1700.00,0.0352
1699.00,0.0360
1698.00,0.0369
1697.00,0.0381
1696.00,0.0394
1695.00,0.0405
1694.00,0.0413
1693.00,0.0420
1692.00,0.0428
1691.00,0.0437
1690.00,0.0448
1689.00,0.0458
1688.00,0.0469
1687.00,0.0478
1686.00,0.0488
1685.00,0.0502
1684.00,0.0521
1683.00,0.0536
1682.00,0.0548
1681.00,0.0559
1680.00,0.0571
1679.00,0.0583
1678.00,0.0593
1677.00,0.0604
1676.00,0.0618
1675.00,0.0634
1674.00,0.0649
1673.00,0.0663
1672.00,0.0676
1671.00,0.0690
1670.00,0.0708
1669.00,0.0727
1668.00,0.0745
1667.00,0.0759
1666.00,0.0771
1665.00,0.0783
1664.00,0.0796
1663.00,0.0813
1662.00,0.0831
1661.00,0.0848
1660.00,0.0863
1659.00,0.0876
1658.00,0.0888
1657.00,0.0896
1656.00,0.0903
1655.00,0.0910
1654.00,0.0926
1653.00,0.0956
1652.00,0.0981
1651.00,0.0993
1650.00,0.0998
1649.00,0.1000
1648.00,0.1007
1647.00,0.1022
1646.00,0.1038
1645.00,0.1049
1644.00,0.1055
1643.00,0.1059
1642.00,0.1062
1641.00,0.1065
1640.00,0.1067
1639.00,0.1068
1638.00,0.1067
1637.00,0.1068
1636.00,0.1073
1635.00,0.1078
1634.00,0.1079
1633.00,0.1076
1632.00,0.1071
1631.00,0.1065
1630.00,0.1057
1629.00,0.1049
1628.00,0.1041
1627.00,0.1032
1626.00,0.1023
1625.00,0.1012
1624.00,0.1001
1623.00,0.0988
1622.00,0.0975
1621.00,0.0962
1620.00,0.0949
1619.00,0.0934
1618.00,0.0918
1617.00,0.0901
1616.00,0.0885
1615.00,0.0869
1614.00,0.0854
1613.00,0.0838
1612.00,0.0821
1611.00,0.0805
1610.00,0.0790
1609.00,0.0775
1608.00,0.0760
1607.00,0.0746
1606.00,0.0731
1605.00,0.0717
1604.00,0.0704
1603.00,0.0691
1602.00,0.0678
1601.00,0.0665
1600.00,0.0652
1599.00,0.0640
1598.00,0.0629
1597.00,0.0618
1596.00,0.0608
1595.00,0.0598
1594.00,0.0588
1593.00,0.0578
1592.00,0.0569
1591.00,0.0560
1590.00,0.0552
1589.00,0.0544
1588.00,0.0536
1587.00,0.0529
1586.00,0.0523
1585.00,0.0517
1584.00,0.0511
1583.00,0.0506
1582.00,0.0502
1581.00,0.0497
1580.00,0.0493
1579.00,0.0489
1578.00,0.0486
1577.00,0.0483
1576.00,0.0478
1575.00,0.0472
1574.00,0.0466
1573.00,0.0460
1572.00,0.0454
1571.00,0.0449
1570.00,0.0443
1569.00,0.0437
1568.00,0.0432
1567.00,0.0429
1566.00,0.0427
1565.00,0.0424
1564.00,0.0420
1563.00,0.0417
1562.00,0.0414
1561.00,0.0410
1560.00,0.0404
1559.00,0.0399
1558.00,0.0397
1557.00,0.0395
1556.00,0.0395
1555.00,0.0396
1554.00,0.0395
1553.00,0.0394
1552.00,0.0393
1551.00,0.0392
1550.00,0.0391
1549.00,0.0389
1548.00,0.0387
1547.00,0.0386
1546.00,0.0386
1545.00,0.0385
1544.00,0.0385
1543.00,0.0384
1542.00,0.0384
1541.00,0.0382
1540.00,0.0378
1539.00,0.0373
1538.00,0.0369
1537.00,0.0366
1536.00,0.0364
1535.00,0.0361
1534.00,0.0356
1533.00,0.0351
1532.00,0.0347
1531.00,0.0345
1530.00,0.0343
1529.00,0.0342
1528.00,0.0340
1527.00,0.0337
1526.00,0.0335
1525.00,0.0333
1524.00,0.0331
1523.00,0.0330
1522.00,0.0329
1521.00,0.0328
1520.00,0.0326
1519.00,0.0324
1518.00,0.0323
1517.00,0.0322
1516.00,0.0321
1515.00,0.0320
1514.00,0.0319
1513.00,0.0318
1512.00,0.0316
1511.00,0.0316
1510.00,0.0316
1509.00,0.0316
1508.00,0.0317
1507.00,0.0316
1506.00,0.0313
1505.00,0.0309
1504.00,0.0307
1503.00,0.0308
1502.00,0.0309
1501.00,0.0308
1500.00,0.0308
1499.00,0.0306
1498.00,0.0306
1497.00,0.0306
1496.00,0.0306
1495.00,0.0307
1494.00,0.0308
1493.00,0.0309
1492.00,0.0310
1491.00,0.0311
1490.00,0.0312
1489.00,0.0314
1488.00,0.0315
1487.00,0.0316
1486.00,0.0318
1485.00,0.0320
1484.00,0.0323
1483.00,0.0326
1482.00,0.0329
1481.00,0.0332
1480.00,0.0334
1479.00,0.0337
1478.00,0.0340
1477.00,0.0343
1476.00,0.0345
1475.00,0.0348
1474.00,0.0352
1473.00,0.0356
1472.00,0.0359
1471.00,0.0361
1470.00,0.0363
1469.00,0.0366
1468.00,0.0368
1467.00,0.0369
1466.00,0.0370
1465.00,0.0371
1464.00,0.0371
1463.00,0.0371
1462.00,0.0372
1461.00,0.0373
1460.00,0.0373
1459.00,0.0374
1458.00,0.0376
1457.00,0.0378
1456.00,0.0379
1455.00,0.0380
1454.00,0.0381
1453.00,0.0382
1452.00,0.0382
1451.00,0.0382
1450.00,0.0381
1449.00,0.0381
1448.00,0.0381
1447.00,0.0381
1446.00,0.0382
1445.00,0.0383
1444.00,0.0384
1443.00,0.0385
1442.00,0.0386
1441.00,0.0387
1440.00,0.0388
1439.00,0.0389
1438.00,0.0391
1437.00,0.0392
1436.00,0.0394
1435.00,0.0395
1434.00,0.0398
1433.00,0.0400
1432.00,0.0402
1431.00,0.0403
1430.00,0.0404
1429.00,0.0405
1428.00,0.0406
1427.00,0.0407
1426.00,0.0409
1425.00,0.0410
1424.00,0.0411
1423.00,0.0412
1422.00,0.0413
1421.00,0.0413
1420.00,0.0413
1419.00,0.0414
1418.00,0.0415
1417.00,0.0416
1416.00,0.0416
1415.00,0.0415
1414.00,0.0415
1413.00,0.0415
1412.00,0.0415
1411.00,0.0416
1410.00,0.0416
1409.00,0.0416
1408.00,0.0416
1407.00,0.0416
1406.00,0.0416
1405.00,0.0416
1404.00,0.0416
1403.00,0.0415
1402.00,0.0414
1401.00,0.0413
1400.00,0.0412
1399.00,0.0410
1398.00,0.0410
1397.00,0.0409
1396.00,0.0408
1395.00,0.0407
1394.00,0.0407
1393.00,0.0407
1392.00,0.0407
1391.00,0.0408
1390.00,0.0410
1389.00,0.0412
1388.00,0.0416
1387.00,0.0420
1386.00,0.0425
1385.00,0.0429
1384.00,0.0434
1383.00,0.0439
1382.00,0.0444
1381.00,0.0449
1380.00,0.0452
1379.00,0.0455
1378.00,0.0457
1377.00,0.0459
1376.00,0.0461
1375.00,0.0462
1374.00,0.0463
1373.00,0.0464
1372.00,0.0463
1371.00,0.0462
1370.00,0.0460
1369.00,0.0459
1368.00,0.0457
1367.00,0.0455
1366.00,0.0453
1365.00,0.0452
1364.00,0.0451
1363.00,0.0450
1362.00,0.0449
1361.00,0.0448
1360.00,0.0447
1359.00,0.0446
1358.00,0.0445
1357.00,0.0445
1356.00,0.0445
1355.00,0.0445
1354.00,0.0444
1353.00,0.0443
1352.00,0.0441
1351.00,0.0439
1350.00,0.0436
1349.00,0.0434
1348.00,0.0430
1347.00,0.0427
1346.00,0.0424
1345.00,0.0421
1344.00,0.0419
1343.00,0.0417
1342.00,0.0416
1341.00,0.0416
1340.00,0.0416
1339.00,0.0416
1338.00,0.0415
1337.00,0.0415
1336.00,0.0414
1335.00,0.0412
1334.00,0.0411
1333.00,0.0410
1332.00,0.0408
1331.00,0.0407
1330.00,0.0407
1329.00,0.0407
1328.00,0.0408
1327.00,0.0409
1326.00,0.0410
1325.00,0.0411
1324.00,0.0412
1323.00,0.0414
1322.00,0.0415
1321.00,0.0417
1320.00,0.0419
1319.00,0.0420
1318.00,0.0422
1317.00,0.0423
1316.00,0.0424
1315.00,0.0424
1314.00,0.0425
1313.00,0.0426
1312.00,0.0426
1311.00,0.0427
1310.00,0.0427
1309.00,0.0428
1308.00,0.0429
1307.00,0.0430
1306.00,0.0432
1305.00,0.0433
1304.00,0.0435
1303.00,0.0437
1302.00,0.0440
1301.00,0.0443
1300.00,0.0447
1299.00,0.0451
1298.00,0.0456
1297.00,0.0461
1296.00,0.0468
1295.00,0.0475
1294.00,0.0482
1293.00,0.0491
1292.00,0.0499
1291.00,0.0509
1290.00,0.0518
1289.00,0.0529
1288.00,0.0540
1287.00,0.0551
1286.00,0.0563
1285.00,0.0576
1284.00,0.0589
1283.00,0.0603
1282.00,0.0618
1281.00,0.0633
1280.00,0.0648
1279.00,0.0664
1278.00,0.0680
1277.00,0.0697
1276.00,0.0713
1275.00,0.0730
1274.00,0.0747
1273.00,0.0764
1272.00,0.0781
1271.00,0.0798
1270.00,0.0814
1269.00,0.0830
1268.00,0.0845
1267.00,0.0859
1266.00,0.0872
1265.00,0.0885
1264.00,0.0896
1263.00,0.0907
1262.00,0.0917
1261.00,0.0926
1260.00,0.0935
1259.00,0.0942
1258.00,0.0949
1257.00,0.0955
1256.00,0.0960
1255.00,0.0965
1254.00,0.0969
1253.00,0.0973
1252.00,0.0977
1251.00,0.0980
1250.00,0.0982
1249.00,0.0985
1248.00,0.0988
1247.00,0.0991
1246.00,0.0994
1245.00,0.0998
1244.00,0.1002
1243.00,0.1006
1242.00,0.1010
1241.00,0.1015
1240.00,0.1020
1239.00,0.1025
1238.00,0.1031
1237.00,0.1036
1236.00,0.1042
1235.00,0.1046
1234.00,0.1050
1233.00,0.1054
1232.00,0.1056
1231.00,0.1059
1230.00,0.1062
1229.00,0.1065
1228.00,0.1067
1227.00,0.1068
1226.00,0.1068
1225.00,0.1067
1224.00,0.1066
1223.00,0.1064
1222.00,0.1062
1221.00,0.1060
1220.00,0.1057
1219.00,0.1053
1218.00,0.1048
1217.00,0.1043
1216.00,0.1037
1215.00,0.1030
1214.00,0.1023
1213.00,0.1016
1212.00,0.1008
1211.00,0.1000
1210.00,0.0992
1209.00,0.0983
1208.00,0.0973
1207.00,0.0964
1206.00,0.0954
1205.00,0.0945
1204.00,0.0935
1203.00,0.0926
1202.00,0.0917
1201.00,0.0910
1200.00,0.0903
1199.00,0.0898
1198.00,0.0896
1197.00,0.0895
1196.00,0.0896
1195.00,0.0898
1194.00,0.0901
1193.00,0.0904
1192.00,0.0908
1191.00,0.0910
1190.00,0.0911
1189.00,0.0911
1188.00,0.0911
1187.00,0.0910
1186.00,0.0910
1185.00,0.0911
1184.00,0.0913
1183.00,0.0915
1182.00,0.0919
1181.00,0.0924
1180.00,0.0931
1179.00,0.0939
1178.00,0.0948
1177.00,0.0958
1176.00,0.0969
1175.00,0.0980
1174.00,0.0992
1173.00,0.1006
1172.00,0.1021
1171.00,0.1039
1170.00,0.1058
1169.00,0.1078
1168.00,0.1099
1167.00,0.1121
1166.00,0.1143
1165.00,0.1164
1164.00,0.1184
1163.00,0.1203
1162.00,0.1220
1161.00,0.1236
1160.00,0.1250
1159.00,0.1261
1158.00,0.1271
1157.00,0.1278
1156.00,0.1283
1155.00,0.1286
1154.00,0.1287
1153.00,0.1288
1152.00,0.1286
1151.00,0.1284
1150.00,0.1280
1149.00,0.1275
1148.00,0.1269
1147.00,0.1263
1146.00,0.1257
1145.00,0.1250
1144.00,0.1245
1143.00,0.1241
1142.00,0.1237
1141.00,0.1236
1140.00,0.1237
1139.00,0.1240
1138.00,0.1247
1137.00,0.1257
1136.00,0.1270
1135.00,0.1287
1134.00,0.1306
1133.00,0.1327
1132.00,0.1349
1131.00,0.1372
1130.00,0.1393
1129.00,0.1413
1128.00,0.1429
1127.00,0.1443
1126.00,0.1452
1125.00,0.1459
1124.00,0.1462
1123.00,0.1464
1122.00,0.1464
1121.00,0.1463
1120.00,0.1463
1119.00,0.1463
1118.00,0.1463
1117.00,0.1464
1116.00,0.1465
1115.00,0.1466
1114.00,0.1466
1113.00,0.1465
1112.00,0.1464
1111.00,0.1462
1110.00,0.1461
1109.00,0.1461
1108.00,0.1461
1107.00,0.1461
1106.00,0.1462
1105.00,0.1464
1104.00,0.1468
1103.00,0.1472
1102.00,0.1478
1101.00,0.1485
1100.00,0.1493
1099.00,0.1502
1098.00,0.1511
1097.00,0.1520
1096.00,0.1528
1095.00,0.1535
1094.00,0.1541
1093.00,0.1546
1092.00,0.1550
1091.00,0.1555
1090.00,0.1560
1089.00,0.1567
1088.00,0.1575
1087.00,0.1584
1086.00,0.1595
1085.00,0.1607
1084.00,0.1620
1083.00,0.1634
1082.00,0.1651
1081.00,0.1670
1080.00,0.1691
1079.00,0.1714
1078.00,0.1738
1077.00,0.1762
1076.00,0.1785
1075.00,0.1808
1074.00,0.1830
1073.00,0.1852
1072.00,0.1873
1071.00,0.1892
1070.00,0.1909
1069.00,0.1923
1068.00,0.1933
1067.00,0.1937
1066.00,0.1935
1065.00,0.1927
1064.00,0.1913
1063.00,0.1895
1062.00,0.1875
1061.00,0.1855
1060.00,0.1837
1059.00,0.1824
1058.00,0.1815
1057.00,0.1811
1056.00,0.1810
1055.00,0.1811
1054.00,0.1815
1053.00,0.1820
1052.00,0.1826
1051.00,0.1833
1050.00,0.1842
1049.00,0.1852
1048.00,0.1866
1047.00,0.1882
1046.00,0.1901
1045.00,0.1922
1044.00,0.1941
1043.00,0.1957
1042.00,0.1970
1041.00,0.1978
1040.00,0.1983
1039.00,0.1983
1038.00,0.1981
1037.00,0.1978
1036.00,0.1974
1035.00,0.1971
1034.00,0.1969
1033.00,0.1970
1032.00,0.1973
1031.00,0.1976
1030.00,0.1978
1029.00,0.1977
1028.00,0.1970
1027.00,0.1958
1026.00,0.1941
1025.00,0.1918
1024.00,0.1891
1023.00,0.1862
1022.00,0.1830
1021.00,0.1797
1020.00,0.1765
1019.00,0.1732
1018.00,0.1699
1017.00,0.1667
1016.00,0.1636
1015.00,0.1607
1014.00,0.1582
1013.00,0.1560
1012.00,0.1541
1011.00,0.1526
1010.00,0.1514
1009.00,0.1506
1008.00,0.1501
1007.00,0.1498
1006.00,0.1495
1005.00,0.1490
1004.00,0.1483
1003.00,0.1472
1002.00,0.1455
1001.00,0.1434
1000.00,0.1407
999.00,0.1378
998.00,0.1349
997.00,0.1320
996.00,0.1294
995.00,0.1270
994.00,0.1249
993.00,0.1231
992.00,0.1215
991.00,0.1199
990.00,0.1183
989.00,0.1167
988.00,0.1151
987.00,0.1133
986.00,0.1115
985.00,0.1096
984.00,0.1077
983.00,0.1059
982.00,0.1043
981.00,0.1029
980.00,0.1018
979.00,0.1008
978.00,0.1001
977.00,0.0995
976.00,0.0992
975.00,0.0991
974.00,0.0991
973.00,0.0993
972.00,0.0996
971.00,0.0997
970.00,0.0996
969.00,0.0991
968.00,0.0980
967.00,0.0965
966.00,0.0946
965.00,0.0925
964.00,0.0904
963.00,0.0885
962.00,0.0869
961.00,0.0856
960.00,0.0846
959.00,0.0839
958.00,0.0835
957.00,0.0833
956.00,0.0834
955.00,0.0837
954.00,0.0843
953.00,0.0851
952.00,0.0861
951.00,0.0871
950.00,0.0882
949.00,0.0894
948.00,0.0908
947.00,0.0923
946.00,0.0940
945.00,0.0959
944.00,0.0979
943.00,0.1001
942.00,0.1026
941.00,0.1054
940.00,0.1085
939.00,0.1120
938.00,0.1157
937.00,0.1196
936.00,0.1235
935.00,0.1273
934.00,0.1309
933.00,0.1341
932.00,0.1369
931.00,0.1393
930.00,0.1414
929.00,0.1432
928.00,0.1448
927.00,0.1461
926.00,0.1471
925.00,0.1478
924.00,0.1483
923.00,0.1486
922.00,0.1488
921.00,0.1489
920.00,0.1488
919.00,0.1487
918.00,0.1484
917.00,0.1481
916.00,0.1476
915.00,0.1469
914.00,0.1461
913.00,0.1452
912.00,0.1442
911.00,0.1431
910.00,0.1418
909.00,0.1405
908.00,0.1394
907.00,0.1383
906.00,0.1374
905.00,0.1365
904.00,0.1356
903.00,0.1347
902.00,0.1339
901.00,0.1332
900.00,0.1323
899.00,0.1315
898.00,0.1308
897.00,0.1301
896.00,0.1294
895.00,0.1288
894.00,0.1283
893.00,0.1278
892.00,0.1272
891.00,0.1265
890.00,0.1257
889.00,0.1249
888.00,0.1238
887.00,0.1224
886.00,0.1208
885.00,0.1190
884.00,0.1169
883.00,0.1149
882.00,0.1129
881.00,0.1110
880.00,0.1093
879.00,0.1079
878.00,0.1069
877.00,0.1063
876.00,0.1061
875.00,0.1060
874.00,0.1059
873.00,0.1057
872.00,0.1053
871.00,0.1047
870.00,0.1040
869.00,0.1034
868.00,0.1028
867.00,0.1023
866.00,0.1020
865.00,0.1020
864.00,0.1021
863.00,0.1025
862.00,0.1031
861.00,0.1040
860.00,0.1051
859.00,0.1065
858.00,0.1080
857.00,0.1098
856.00,0.1117
855.00,0.1137
854.00,0.1159
853.00,0.1182
852.00,0.1206
851.00,0.1230
850.00,0.1252
849.00,0.1270
848.00,0.1285
847.00,0.1296
846.00,0.1302
845.00,0.1304
844.00,0.1300
843.00,0.1290
842.00,0.1277
841.00,0.1261
840.00,0.1244
839.00,0.1228
838.00,0.1211
837.00,0.1196
836.00,0.1181
835.00,0.1167
834.00,0.1155
833.00,0.1144
832.00,0.1135
831.00,0.1127
830.00,0.1121
829.00,0.1116
828.00,0.1111
827.00,0.1105
826.00,0.1101
825.00,0.1098
824.00,0.1097
823.00,0.1097
822.00,0.1098
821.00,0.1098
820.00,0.1098
819.00,0.1098
818.00,0.1100
817.00,0.1103
816.00,0.1106
815.00,0.1111
814.00,0.1117
813.00,0.1123
812.00,0.1130
811.00,0.1136
810.00,0.1143
809.00,0.1151
808.00,0.1160
807.00,0.1168
806.00,0.1177
805.00,0.1185
804.00,0.1192
803.00,0.1199
802.00,0.1206
801.00,0.1211
800.00,0.1214
799.00,0.1217
798.00,0.1219
797.00,0.1221
796.00,0.1220
795.00,0.1219
794.00,0.1218
793.00,0.1219
792.00,0.1219
791.00,0.1220
790.00,0.1221
789.00,0.1222
788.00,0.1224
787.00,0.1226
786.00,0.1229
785.00,0.1234
784.00,0.1239
783.00,0.1245
782.00,0.1252
781.00,0.1260
780.00,0.1269
779.00,0.1279
778.00,0.1289
777.00,0.1300
776.00,0.1310
775.00,0.1319
774.00,0.1326
773.00,0.1331
772.00,0.1335
771.00,0.1338
770.00,0.1339
769.00,0.1340
768.00,0.1339
767.00,0.1340
766.00,0.1342
765.00,0.1346
764.00,0.1349
763.00,0.1353
762.00,0.1358
761.00,0.1364
760.00,0.1370
759.00,0.1377
758.00,0.1385
757.00,0.1394
756.00,0.1403
755.00,0.1413
754.00,0.1425
753.00,0.1438
752.00,0.1452
751.00,0.1468
750.00,0.1486
749.00,0.1504
748.00,0.1521
747.00,0.1537
746.00,0.1552
745.00,0.1566
744.00,0.1580
743.00,0.1593
742.00,0.1605
741.00,0.1618
740.00,0.1631
739.00,0.1643
738.00,0.1655
737.00,0.1665
736.00,0.1675
735.00,0.1683
734.00,0.1690
733.00,0.1697
732.00,0.1704
731.00,0.1712
730.00,0.1720
729.00,0.1729
728.00,0.1737
727.00,0.1745
726.00,0.1753
725.00,0.1759
724.00,0.1764
723.00,0.1767
722.00,0.1768
721.00,0.1768
720.00,0.1768
719.00,0.1768
718.00,0.1768
717.00,0.1768
716.00,0.1770
715.00,0.1774
714.00,0.1779
713.00,0.1786
712.00,0.1795
711.00,0.1806
710.00,0.1819
709.00,0.1834
708.00,0.1849
707.00,0.1864
706.00,0.1879
705.00,0.1893
704.00,0.1904
703.00,0.1911
702.00,0.1915
701.00,0.1917
700.00,0.1917
699.00,0.1915
698.00,0.1912
697.00,0.1909
696.00,0.1904
695.00,0.1898
694.00,0.1891
693.00,0.1885
692.00,0.1879
691.00,0.1872
690.00,0.1866
689.00,0.1861
688.00,0.1857
687.00,0.1853
686.00,0.1850
685.00,0.1849
684.00,0.1850
683.00,0.1851
682.00,0.1852
681.00,0.1855
680.00,0.1858
679.00,0.1861
678.00,0.1863
677.00,0.1866
676.00,0.1871
675.00,0.1877
674.00,0.1885
673.00,0.1892
672.00,0.1895
671.00,0.1896
670.00,0.1900
669.00,0.1911
668.00,0.1931
667.00,0.1949
666.00,0.1953
665.00,0.1948
664.00,0.1943
663.00,0.1942
662.00,0.1944
661.00,0.1947
660.00,0.1951
659.00,0.1955
658.00,0.1958
657.00,0.1961
656.00,0.1963
655.00,0.1965
654.00,0.1968
653.00,0.1971
652.00,0.1975
651.00,0.1980
650.00,0.1986
649.00,0.1992
648.00,0.1997
647.00,0.2002
646.00,0.2006
645.00,0.2011
644.00,0.2016
643.00,0.2021
642.00,0.2027
641.00,0.2033
640.00,0.2041
639.00,0.2049
638.00,0.2057
637.00,0.2066
636.00,0.2074
635.00,0.2085
634.00,0.2097
633.00,0.2111
632.00,0.2125
631.00,0.2139
630.00,0.2155
629.00,0.2170
628.00,0.2186
627.00,0.2200
626.00,0.2216
625.00,0.2233
624.00,0.2251
623.00,0.2270
622.00,0.2289
621.00,0.2305
620.00,0.2319
619.00,0.2331
618.00,0.2343
617.00,0.2354
616.00,0.2368
615.00,0.2383
614.00,0.2398
613.00,0.2411
612.00,0.2422
611.00,0.2432
610.00,0.2444
609.00,0.2458
608.00,0.2471
607.00,0.2482
606.00,0.2491
605.00,0.2497
604.00,0.2503
603.00,0.2509
602.00,0.2514
601.00,0.2519
600.00,0.2525
599.00,0.2531
598.00,0.2539
597.00,0.2547
596.00,0.2557
595.00,0.2569
594.00,0.2584
593.00,0.2601
592.00,0.2621
591.00,0.2642
590.00,0.2660
589.00,0.2677
588.00,0.2692
587.00,0.2709
586.00,0.2727
585.00,0.2749
584.00,0.2772
583.00,0.2794
582.00,0.2815
581.00,0.2833
580.00,0.2850
579.00,0.2866
578.00,0.2883
577.00,0.2899
576.00,0.2914
575.00,0.2927
574.00,0.2938
573.00,0.2948
572.00,0.2960
571.00,0.2975
570.00,0.2992
569.00,0.3011
568.00,0.3029
567.00,0.3045
566.00,0.3058
565.00,0.3069
564.00,0.3079
563.00,0.3089
562.00,0.3096
561.00,0.3101
560.00,0.3106
559.00,0.3114
558.00,0.3124
557.00,0.3133
556.00,0.3141
555.00,0.3145
554.00,0.3144
553.00,0.3139
552.00,0.3135
551.00,0.3133
550.00,0.3136
549.00,0.3142
548.00,0.3149
547.00,0.3158
546.00,0.3165
545.00,0.3171
544.00,0.3177
543.00,0.3180
542.00,0.3180
541.00,0.3177
540.00,0.3172
539.00,0.3167
538.00,0.3163
537.00,0.3160
536.00,0.3159
535.00,0.3157
534.00,0.3153
533.00,0.3147
532.00,0.3141
531.00,0.3138
530.00,0.3140
529.00,0.3142
528.00,0.3142
527.00,0.3141
526.00,0.3138
525.00,0.3136
524.00,0.3135
523.00,0.3135
522.00,0.3137
521.00,0.3141
520.00,0.3148
519.00,0.3156
518.00,0.3163
517.00,0.3167
516.00,0.3167
515.00,0.3163
514.00,0.3159
513.00,0.3155
512.00,0.3152
511.00,0.3151
510.00,0.3151
509.00,0.3151
508.00,0.3150
507.00,0.3149
506.00,0.3148
505.00,0.3149
504.00,0.3151
503.00,0.3152
502.00,0.3150
501.00,0.3150
500.00,0.3153
499.00,0.3159
498.00,0.3163
497.00,0.3165
496.00,0.3167
495.00,0.3170
494.00,0.3177
493.00,0.3187
492.00,0.3201
491.00,0.3213
490.00,0.3219
489.00,0.3218
488.00,0.3216
487.00,0.3216
486.00,0.3216
485.00,0.3216
484.00,0.3217
483.00,0.3221
482.00,0.3225
481.00,0.3228
480.00,0.3230
479.00,0.3231
478.00,0.3228
477.00,0.3222
476.00,0.3218
475.00,0.3222
474.00,0.3232
473.00,0.3243
472.00,0.3249
471.00,0.3249
470.00,0.3247
469.00,0.3243
468.00,0.3242
467.00,0.3243
466.00,0.3243
465.00,0.3241
464.00,0.3240
463.00,0.3247
462.00,0.3257
461.00,0.3265
460.00,0.3268
459.00,0.3270
458.00,0.3273
457.00,0.3276
456.00,0.3274
455.00,0.3270
454.00,0.3271
453.00,0.3280
452.00,0.3294
451.00,0.3303
450.00,0.3303
