Created as New Dataset,Sample 003 By Administrator Date Thursday, May 29 2025
cm-1,A
4000.00,0.0070
3999.00,0.0070
3998.00,0.0070
3997.00,0.0070
3996.00,0.0070
3995.00,0.0070
3994.00,0.0070
3993.00,0.0070
3992.00,0.0071
3991.00,0.0071
3990.00,0.0071
3989.00,0.0072
3988.00,0.0072
3987.00,0.0071
3986.00,0.0071
3985.00,0.0071
3984.00,0.0071
3983.00,0.0071
3982.00,0.0071
3981.00,0.0072
3980.00,0.0072
3979.00,0.0072
3978.00,0.0072
3977.00,0.0072
3976.00,0.0071
3975.00,0.0071
3974.00,0.0071
3973.00,0.0071
3972.00,0.0071
3971.00,0.0071
3970.00,0.0071
3969.00,0.0071
3968.00,0.0071
3967.00,0.0071
3966.00,0.0071
3965.00,0.0071
3964.00,0.0072
3963.00,0.0072
3962.00,0.0071
3961.00,0.0071
3960.00,0.0071
3959.00,0.0071
3958.00,0.0072
3957.00,0.0072
3956.00,0.0072
3955.00,0.0072
3954.00,0.0072
3953.00,0.0073
3952.00,0.0073
3951.00,0.0073
3950.00,0.0073
3949.00,0.0073
3948.00,0.0072
3947.00,0.0072
3946.00,0.0072
3945.00,0.0073
3944.00,0.0073
3943.00,0.0072
3942.00,0.0072
3941.00,0.0072
3940.00,0.0072
3939.00,0.0072
3938.00,0.0072
3937.00,0.0072
3936.00,0.0072
3935.00,0.0073
3934.00,0.0073
3933.00,0.0073
3932.00,0.0074
3931.00,0.0074
3930.00,0.0073
3929.00,0.0073
3928.00,0.0073
3927.00,0.0072
3926.00,0.0072
3925.00,0.0072
3924.00,0.0072
3923.00,0.0072
3922.00,0.0072
3921.00,0.0072
3920.00,0.0072
3919.00,0.0072
3918.00,0.0072
3917.00,0.0072
3916.00,0.0072
3915.00,0.0071
3914.00,0.0071
3913.00,0.0070
3912.00,0.0070
3911.00,0.0071
3910.00,0.0071
3909.00,0.0072
3908.00,0.0072
3907.00,0.0072
3906.00,0.0072
3905.00,0.0073
3904.00,0.0073
3903.00,0.0073
3902.00,0.0073
3901.00,0.0072
3900.00,0.0072
3899.00,0.0071
3898.00,0.0071
3897.00,0.0071
3896.00,0.0071
3895.00,0.0071
3894.00,0.0071
3893.00,0.0071
3892.00,0.0071
3891.00,0.0071
3890.00,0.0071
3889.00,0.0071
3888.00,0.0071
3887.00,0.0071
3886.00,0.0071
3885.00,0.0072
3884.00,0.0072
3883.00,0.0072
3882.00,0.0072
3881.00,0.0072
3880.00,0.0071
3879.00,0.0071
3878.00,0.0071
3877.00,0.0071
3876.00,0.0071
3875.00,0.0071
3874.00,0.0072
3873.00,0.0072
3872.00,0.0072
3871.00,0.0072
3870.00,0.0072
3869.00,0.0072
3868.00,0.0072
3867.00,0.0072
3866.00,0.0072
3865.00,0.0072
3864.00,0.0071
3863.00,0.0071
3862.00,0.0071
3861.00,0.0071
3860.00,0.0072
3859.00,0.0072
3858.00,0.0071
3857.00,0.0070
3856.00,0.0070
3855.00,0.0070
3854.00,0.0070
3853.00,0.0070
3852.00,0.0069
3851.00,0.0069
3850.00,0.0069
3849.00,0.0070
3848.00,0.0070
3847.00,0.0071
3846.00,0.0072
3845.00,0.0072
3844.00,0.0072
3843.00,0.0072
3842.00,0.0072
3841.00,0.0072
3840.00,0.0072
3839.00,0.0071
3838.00,0.0071
3837.00,0.0070
3836.00,0.0070
3835.00,0.0071
3834.00,0.0071
3833.00,0.0072
3832.00,0.0073
3831.00,0.0073
3830.00,0.0073
3829.00,0.0073
3828.00,0.0072
3827.00,0.0073
3826.00,0.0073
3825.00,0.0073
3824.00,0.0072
3823.00,0.0072
3822.00,0.0072
3821.00,0.0072
3820.00,0.0072
3819.00,0.0073
3818.00,0.0073
3817.00,0.0073
3816.00,0.0073
3815.00,0.0073
3814.00,0.0073
3813.00,0.0073
3812.00,0.0073
3811.00,0.0074
3810.00,0.0074
3809.00,0.0074
3808.00,0.0075
3807.00,0.0075
3806.00,0.0074
3805.00,0.0074
3804.00,0.0074
3803.00,0.0073
3802.00,0.0073
3801.00,0.0073
3800.00,0.0073
3799.00,0.0074
3798.00,0.0074
3797.00,0.0073
3796.00,0.0073
3795.00,0.0074
3794.00,0.0074
3793.00,0.0074
3792.00,0.0075
3791.00,0.0075
3790.00,0.0075
3789.00,0.0076
3788.00,0.0076
3787.00,0.0077
3786.00,0.0077
3785.00,0.0077
3784.00,0.0077
3783.00,0.0077
3782.00,0.0078
3781.00,0.0078
3780.00,0.0079
3779.00,0.0079
3778.00,0.0078
3777.00,0.0078
3776.00,0.0078
3775.00,0.0078
3774.00,0.0078
3773.00,0.0078
3772.00,0.0078
3771.00,0.0078
3770.00,0.0078
3769.00,0.0078
3768.00,0.0078
3767.00,0.0078
3766.00,0.0079
3765.00,0.0079
3764.00,0.0079
3763.00,0.0080
3762.00,0.0080
3761.00,0.0080
3760.00,0.0081
3759.00,0.0081
3758.00,0.0081
3757.00,0.0081
3756.00,0.0081
3755.00,0.0081
3754.00,0.0080
3753.00,0.0080
3752.00,0.0080
3751.00,0.0080
3750.00,0.0080
3749.00,0.0080
3748.00,0.0080
3747.00,0.0080
3746.00,0.0081
3745.00,0.0081
3744.00,0.0081
3743.00,0.0082
3742.00,0.0082
3741.00,0.0083
3740.00,0.0083
3739.00,0.0083
3738.00,0.0084
3737.00,0.0084
3736.00,0.0084
3735.00,0.0084
3734.00,0.0084
3733.00,0.0084
3732.00,0.0084
3731.00,0.0084
3730.00,0.0085
3729.00,0.0085
3728.00,0.0086
3727.00,0.0087
3726.00,0.0088
3725.00,0.0089
3724.00,0.0089
3723.00,0.0090
3722.00,0.0090
3721.00,0.0090
3720.00,0.0090
3719.00,0.0091
3718.00,0.0091
3717.00,0.0092
3716.00,0.0093
3715.00,0.0093
3714.00,0.0094
3713.00,0.0095
3712.00,0.0095
3711.00,0.0096
3710.00,0.0096
3709.00,0.0096
3708.00,0.0097
3707.00,0.0098
3706.00,0.0099
3705.00,0.0099
3704.00,0.0100
3703.00,0.0100
3702.00,0.0101
3701.00,0.0102
3700.00,0.0103
3699.00,0.0104
3698.00,0.0106
3697.00,0.0107
3696.00,0.0108
3695.00,0.0109
3694.00,0.0110
3693.00,0.0111
3692.00,0.0112
3691.00,0.0114
3690.00,0.0115
3689.00,0.0117
3688.00,0.0119
3687.00,0.0121
3686.00,0.0123
3685.00,0.0125
3684.00,0.0127
3683.00,0.0129
3682.00,0.0131
3681.00,0.0133
3680.00,0.0134
3679.00,0.0136
3678.00,0.0137
3677.00,0.0139
3676.00,0.0143
3675.00,0.0146
3674.00,0.0149
3673.00,0.0151
3672.00,0.0154
3671.00,0.0157
3670.00,0.0161
3669.00,0.0165
3668.00,0.0169
3667.00,0.0173
3666.00,0.0176
3665.00,0.0180
3664.00,0.0183
3663.00,0.0187
3662.00,0.0191
3661.00,0.0194
3660.00,0.0198
3659.00,0.0201
3658.00,0.0208
3657.00,0.0213
3656.00,0.0217
3655.00,0.0223
3654.00,0.0227
3653.00,0.0233
3652.00,0.0229
3651.00,0.0233
3650.00,0.0240
3649.00,0.0247
3648.00,0.0255
3647.00,0.0262
3646.00,0.0269
3645.00,0.0274
3644.00,0.0279
3643.00,0.0284
3642.00,0.0289
3641.00,0.0294
3640.00,0.0300
3639.00,0.0306
3638.00,0.0312
3637.00,0.0318
3636.00,0.0324
3635.00,0.0330
3634.00,0.0336
3633.00,0.0341
3632.00,0.0347
3631.00,0.0353
3630.00,0.0359
3629.00,0.0366
3628.00,0.0373
3627.00,0.0379
3626.00,0.0386
3625.00,0.0392
3624.00,0.0398
3623.00,0.0404
3622.00,0.0406
3621.00,0.0410
3620.00,0.0417
3619.00,0.0424
3618.00,0.0432
3617.00,0.0439
3616.00,0.0445
3615.00,0.0451
3614.00,0.0457
3613.00,0.0463
3612.00,0.0469
3611.00,0.0475
3610.00,0.0481
3609.00,0.0488
3608.00,0.0495
3607.00,0.0503
3606.00,0.0510
3605.00,0.0516
3604.00,0.0521
3603.00,0.0526
3602.00,0.0531
3601.00,0.0536
3600.00,0.0542
3599.00,0.0548
3598.00,0.0554
3597.00,0.0560
3596.00,0.0566
3595.00,0.0573
3594.00,0.0579
3593.00,0.0585
3592.00,0.0589
3591.00,0.0593
3590.00,0.0597
3589.00,0.0603
3588.00,0.0610
3587.00,0.0619
3586.00,0.0627
3585.00,0.0634
3584.00,0.0640
3583.00,0.0645
3582.00,0.0650
3581.00,0.0655
3580.00,0.0661
3579.00,0.0667
3578.00,0.0672
3577.00,0.0678
3576.00,0.0683
3575.00,0.0689
3574.00,0.0694
3573.00,0.0699
3572.00,0.0704
3571.00,0.0708
3570.00,0.0711
3569.00,0.0716
3568.00,0.0723
3567.00,0.0731
3566.00,0.0739
3565.00,0.0746
3564.00,0.0752
3563.00,0.0757
3562.00,0.0762
3561.00,0.0767
3560.00,0.0772
3559.00,0.0778
3558.00,0.0783
3557.00,0.0788
3556.00,0.0793
3555.00,0.0797
3554.00,0.0803
3553.00,0.0808
3552.00,0.0814
3551.00,0.0820
3550.00,0.0825
3549.00,0.0831
3548.00,0.0836
3547.00,0.0842
3546.00,0.0848
3545.00,0.0853
3544.00,0.0859
3543.00,0.0864
3542.00,0.0869
3541.00,0.0874
3540.00,0.0879
3539.00,0.0884
3538.00,0.0889
3537.00,0.0895
3536.00,0.0900
3535.00,0.0905
3534.00,0.0909
3533.00,0.0913
3532.00,0.0917
3531.00,0.0922
3530.00,0.0927
3529.00,0.0933
3528.00,0.0939
3527.00,0.0945
3526.00,0.0951
3525.00,0.0957
3524.00,0.0963
3523.00,0.0968
3522.00,0.0973
3521.00,0.0978
3520.00,0.0982
3519.00,0.0987
3518.00,0.0991
3517.00,0.0996
3516.00,0.1002
3515.00,0.1006
3514.00,0.1011
3513.00,0.1015
3512.00,0.1020
3511.00,0.1025
3510.00,0.1031
3509.00,0.1037
3508.00,0.1042
3507.00,0.1047
3506.00,0.1052
3505.00,0.1057
3504.00,0.1063
3503.00,0.1068
3502.00,0.1074
3501.00,0.1079
3500.00,0.1084
3499.00,0.1088
3498.00,0.1093
3497.00,0.1097
3496.00,0.1102
3495.00,0.1106
3494.00,0.1110
3493.00,0.1115
3492.00,0.1119
3491.00,0.1123
3490.00,0.1127
3489.00,0.1133
3488.00,0.1138
3487.00,0.1143
3486.00,0.1148
3485.00,0.1152
3484.00,0.1156
3483.00,0.1161
3482.00,0.1166
3481.00,0.1171
3480.00,0.1175
3479.00,0.1180
3478.00,0.1184
3477.00,0.1188
3476.00,0.1192
3475.00,0.1196
3474.00,0.1201
3473.00,0.1205
3472.00,0.1210
3471.00,0.1215
3470.00,0.1220
3469.00,0.1225
3468.00,0.1229
3467.00,0.1232
3466.00,0.1236
3465.00,0.1240
3464.00,0.1244
3463.00,0.1249
3462.00,0.1253
3461.00,0.1257
3460.00,0.1260
3459.00,0.1263
3458.00,0.1267
3457.00,0.1270
3456.00,0.1274
3455.00,0.1277
3454.00,0.1281
3453.00,0.1285
3452.00,0.1289
3451.00,0.1292
3450.00,0.1296
3449.00,0.1299
3448.00,0.1303
3447.00,0.1307
3446.00,0.1311
3445.00,0.1315
3444.00,0.1318
3443.00,0.1322
3442.00,0.1325
3441.00,0.1329
3440.00,0.1332
3439.00,0.1336
3438.00,0.1340
3437.00,0.1343
3436.00,0.1346
3435.00,0.1349
3434.00,0.1351
3433.00,0.1354
3432.00,0.1357
3431.00,0.1359
3430.00,0.1362
3429.00,0.1365
3428.00,0.1367
3427.00,0.1368
3426.00,0.1370
3425.00,0.1372
3424.00,0.1374
3423.00,0.1377
3422.00,0.1379
3421.00,0.1382
3420.00,0.1384
3419.00,0.1386
3418.00,0.1388
3417.00,0.1391
3416.00,0.1393
3415.00,0.1395
3414.00,0.1397
3413.00,0.1399
3412.00,0.1401
3411.00,0.1402
3410.00,0.1403
3409.00,0.1404
3408.00,0.1405
3407.00,0.1406
3406.00,0.1407
3405.00,0.1409
3404.00,0.1411
3403.00,0.1412
3402.00,0.1413
3401.00,0.1414
3400.00,0.1414
3399.00,0.1414
3398.00,0.1414
3397.00,0.1415
3396.00,0.1415
3395.00,0.1415
3394.00,0.1416
3393.00,0.1416
3392.00,0.1416
3391.00,0.1416
3390.00,0.1415
3389.00,0.1415
3388.00,0.1414
3387.00,0.1413
3386.00,0.1412
3385.00,0.1412
3384.00,0.1411
3383.00,0.1411
3382.00,0.1411
3381.00,0.1410
3380.00,0.1409
3379.00,0.1408
3378.00,0.1406
3377.00,0.1405
3376.00,0.1403
3375.00,0.1402
3374.00,0.1401
3373.00,0.1401
3372.00,0.1400
3371.00,0.1399
3370.00,0.1398
3369.00,0.1397
3368.00,0.1395
3367.00,0.1393
3366.00,0.1391
3365.00,0.1388
3364.00,0.1386
3363.00,0.1383
3362.00,0.1381
3361.00,0.1378
3360.00,0.1376
3359.00,0.1373
3358.00,0.1371
3357.00,0.1368
3356.00,0.1366
3355.00,0.1364
3354.00,0.1361
3353.00,0.1359
3352.00,0.1357
3351.00,0.1354
3350.00,0.1351
3349.00,0.1347
3348.00,0.1344
3347.00,0.1340
3346.00,0.1338
3345.00,0.1335
3344.00,0.1333
3343.00,0.1331
3342.00,0.1328
3341.00,0.1325
3340.00,0.1322
3339.00,0.1319
3338.00,0.1315
3337.00,0.1312
3336.00,0.1308
3335.00,0.1305
3334.00,0.1302
3333.00,0.1299
3332.00,0.1295
3331.00,0.1292
3330.00,0.1289
3329.00,0.1286
3328.00,0.1283
3327.00,0.1280
3326.00,0.1276
3325.00,0.1273
3324.00,0.1269
3323.00,0.1266
3322.00,0.1262
3321.00,0.1259
3320.00,0.1256
3319.00,0.1253
3318.00,0.1250
3317.00,0.1247
3316.00,0.1244
3315.00,0.1241
3314.00,0.1238
3313.00,0.1235
3312.00,0.1232
3311.00,0.1230
3310.00,0.1226
3309.00,0.1223
3308.00,0.1220
3307.00,0.1218
3306.00,0.1215
3305.00,0.1212
3304.00,0.1208
3303.00,0.1205
3302.00,0.1202
3301.00,0.1199
3300.00,0.1196
3299.00,0.1194
3298.00,0.1191
3297.00,0.1188
3296.00,0.1186
3295.00,0.1183
3294.00,0.1181
3293.00,0.1178
3292.00,0.1175
3291.00,0.1171
3290.00,0.1168
3289.00,0.1166
3288.00,0.1163
3287.00,0.1161
3286.00,0.1158
3285.00,0.1156
3284.00,0.1153
3283.00,0.1150
3282.00,0.1147
3281.00,0.1143
3280.00,0.1140
3279.00,0.1137
3278.00,0.1135
3277.00,0.1133
3276.00,0.1130
3275.00,0.1128
3274.00,0.1125
3273.00,0.1122
3272.00,0.1120
3271.00,0.1117
3270.00,0.1114
3269.00,0.1111
3268.00,0.1107
3267.00,0.1104
3266.00,0.1101
3265.00,0.1099
3264.00,0.1096
3263.00,0.1093
3262.00,0.1091
3261.00,0.1088
3260.00,0.1085
3259.00,0.1083
3258.00,0.1080
3257.00,0.1076
3256.00,0.1073
3255.00,0.1070
3254.00,0.1067
3253.00,0.1064
3252.00,0.1061
3251.00,0.1058
3250.00,0.1054
3249.00,0.1050
3248.00,0.1047
3247.00,0.1043
3246.00,0.1039
3245.00,0.1035
3244.00,0.1032
3243.00,0.1028
3242.00,0.1025
3241.00,0.1021
3240.00,0.1018
3239.00,0.1014
3238.00,0.1011
3237.00,0.1007
3236.00,0.1004
3235.00,0.1000
3234.00,0.0996
3233.00,0.0991
3232.00,0.0987
3231.00,0.0982
3230.00,0.0977
3229.00,0.0973
3228.00,0.0969
3227.00,0.0965
3226.00,0.0961
3225.00,0.0956
3224.00,0.0952
3223.00,0.0947
3222.00,0.0943
3221.00,0.0938
3220.00,0.0934
3219.00,0.0930
3218.00,0.0926
3217.00,0.0921
3216.00,0.0917
3215.00,0.0913
3214.00,0.0908
3213.00,0.0904
3212.00,0.0899
3211.00,0.0894
3210.00,0.0890
3209.00,0.0885
3208.00,0.0881
3207.00,0.0876
3206.00,0.0871
3205.00,0.0866
3204.00,0.0861
3203.00,0.0856
3202.00,0.0851
3201.00,0.0847
3200.00,0.0842
3199.00,0.0837
3198.00,0.0832
3197.00,0.0827
3196.00,0.0823
3195.00,0.0818
3194.00,0.0813
3193.00,0.0808
3192.00,0.0803
3191.00,0.0798
3190.00,0.0793
3189.00,0.0789
3188.00,0.0784
3187.00,0.0779
3186.00,0.0774
3185.00,0.0769
3184.00,0.0764
3183.00,0.0759
3182.00,0.0754
3181.00,0.0750
3180.00,0.0745
3179.00,0.0741
3178.00,0.0736
3177.00,0.0732
3176.00,0.0727
3175.00,0.0722
3174.00,0.0717
3173.00,0.0712
3172.00,0.0708
3171.00,0.0703
3170.00,0.0698
3169.00,0.0694
3168.00,0.0690
3167.00,0.0685
3166.00,0.0681
3165.00,0.0676
3164.00,0.0671
3163.00,0.0667
3162.00,0.0663
3161.00,0.0659
3160.00,0.0655
3159.00,0.0651
3158.00,0.0647
3157.00,0.0643
3156.00,0.0638
3155.00,0.0634
3154.00,0.0630
3153.00,0.0626
3152.00,0.0622
3151.00,0.0618
3150.00,0.0613
3149.00,0.0609
3148.00,0.0605
3147.00,0.0601
3146.00,0.0597
3145.00,0.0593
3144.00,0.0589
3143.00,0.0586
3142.00,0.0582
3141.00,0.0578
3140.00,0.0574
3139.00,0.0570
3138.00,0.0566
3137.00,0.0562
3136.00,0.0558
3135.00,0.0555
3134.00,0.0552
3133.00,0.0548
3132.00,0.0544
3131.00,0.0540
3130.00,0.0536
3129.00,0.0533
3128.00,0.0529
3127.00,0.0525
3126.00,0.0522
3125.00,0.0519
3124.00,0.0515
3123.00,0.0512
3122.00,0.0510
3121.00,0.0507
3120.00,0.0504
3119.00,0.0500
3118.00,0.0497
3117.00,0.0494
3116.00,0.0490
3115.00,0.0487
3114.00,0.0483
3113.00,0.0480
3112.00,0.0477
3111.00,0.0474
3110.00,0.0471
3109.00,0.0469
3108.00,0.0465
3107.00,0.0462
3106.00,0.0459
3105.00,0.0456
3104.00,0.0453
3103.00,0.0450
3102.00,0.0448
3101.00,0.0445
3100.00,0.0443
3099.00,0.0440
3098.00,0.0437
3097.00,0.0434
3096.00,0.0431
3095.00,0.0428
3094.00,0.0426
3093.00,0.0423
3092.00,0.0421
3091.00,0.0419
3090.00,0.0416
3089.00,0.0414
3088.00,0.0412
3087.00,0.0410
3086.00,0.0407
3085.00,0.0405
3084.00,0.0402
3083.00,0.0400
3082.00,0.0397
3081.00,0.0395
3080.00,0.0393
3079.00,0.0390
3078.00,0.0388
3077.00,0.0385
3076.00,0.0383
3075.00,0.0380
3074.00,0.0378
3073.00,0.0376
3072.00,0.0374
3071.00,0.0373
3070.00,0.0371
3069.00,0.0369
3068.00,0.0367
3067.00,0.0365
3066.00,0.0363
3065.00,0.0361
3064.00,0.0359
3063.00,0.0356
3062.00,0.0354
3061.00,0.0352
3060.00,0.0350
3059.00,0.0348
3058.00,0.0346
3057.00,0.0344
3056.00,0.0342
3055.00,0.0340
3054.00,0.0338
3053.00,0.0336
3052.00,0.0335
3051.00,0.0333
3050.00,0.0332
3049.00,0.0330
3048.00,0.0328
3047.00,0.0326
3046.00,0.0324
3045.00,0.0323
3044.00,0.0321
3043.00,0.0319
3042.00,0.0318
3041.00,0.0316
3040.00,0.0315
3039.00,0.0313
3038.00,0.0311
3037.00,0.0310
3036.00,0.0308
3035.00,0.0307
3034.00,0.0305
3033.00,0.0304
3032.00,0.0302
3031.00,0.0301
3030.00,0.0299
3029.00,0.0297
3028.00,0.0296
3027.00,0.0295
3026.00,0.0294
3025.00,0.0293
3024.00,0.0291
3023.00,0.0289
3022.00,0.0287
3021.00,0.0285
3020.00,0.0284
3019.00,0.0283
3018.00,0.0282
3017.00,0.0281
3016.00,0.0280
3015.00,0.0278
3014.00,0.0277
3013.00,0.0276
3012.00,0.0275
3011.00,0.0274
3010.00,0.0274
3009.00,0.0272
3008.00,0.0271
3007.00,0.0270
3006.00,0.0269
3005.00,0.0268
3004.00,0.0268
3003.00,0.0267
3002.00,0.0265
3001.00,0.0264
3000.00,0.0263
2999.00,0.0262
2998.00,0.0261
2997.00,0.0261
2996.00,0.0261
2995.00,0.0260
2994.00,0.0260
2993.00,0.0259
2992.00,0.0259
2991.00,0.0258
2990.00,0.0258
2989.00,0.0257
2988.00,0.0257
2987.00,0.0257
2986.00,0.0256
2985.00,0.0256
2984.00,0.0256
2983.00,0.0256
2982.00,0.0256
2981.00,0.0256
2980.00,0.0256
2979.00,0.0256
2978.00,0.0256
2977.00,0.0256
2976.00,0.0257
2975.00,0.0257
2974.00,0.0257
2973.00,0.0256
2972.00,0.0256
2971.00,0.0255
2970.00,0.0255
2969.00,0.0255
2968.00,0.0254
2967.00,0.0253
2966.00,0.0252
2965.00,0.0252
2964.00,0.0251
2963.00,0.0251
2962.00,0.0252
2961.00,0.0252
2960.00,0.0251
2959.00,0.0251
2958.00,0.0250
2957.00,0.0250
2956.00,0.0249
2955.00,0.0249
2954.00,0.0248
2953.00,0.0248
2952.00,0.0247
2951.00,0.0246
2950.00,0.0245
2949.00,0.0244
2948.00,0.0244
2947.00,0.0243
2946.00,0.0243
2945.00,0.0242
2944.00,0.0242
2943.00,0.0241
2942.00,0.0241
2941.00,0.0241
2940.00,0.0240
2939.00,0.0240
2938.00,0.0239
2937.00,0.0239
2936.00,0.0238
2935.00,0.0238
2934.00,0.0238
2933.00,0.0238
2932.00,0.0238
2931.00,0.0238
2930.00,0.0238
2929.00,0.0239
2928.00,0.0239
2927.00,0.0239
2926.00,0.0240
2925.00,0.0240
2924.00,0.0240
2923.00,0.0241
2922.00,0.0241
2921.00,0.0241
2920.00,0.0241
2919.00,0.0240
2918.00,0.0239
2917.00,0.0237
2916.00,0.0236
2915.00,0.0234
2914.00,0.0233
2913.00,0.0232
2912.00,0.0231
2911.00,0.0230
2910.00,0.0228
2909.00,0.0227
2908.00,0.0226
2907.00,0.0224
2906.00,0.0223
2905.00,0.0222
2904.00,0.0220
2903.00,0.0219
2902.00,0.0217
2901.00,0.0216
2900.00,0.0215
2899.00,0.0214
2898.00,0.0213
2897.00,0.0212
2896.00,0.0210
2895.00,0.0209
2894.00,0.0207
2893.00,0.0205
2892.00,0.0204
2891.00,0.0202
2890.00,0.0202
2889.00,0.0201
2888.00,0.0200
2887.00,0.0199
2886.00,0.0197
2885.00,0.0196
2884.00,0.0195
2883.00,0.0194
2882.00,0.0193
2881.00,0.0192
2880.00,0.0191
2879.00,0.0190
2878.00,0.0189
2877.00,0.0189
2876.00,0.0188
2875.00,0.0187
2874.00,0.0186
2873.00,0.0184
2872.00,0.0183
2871.00,0.0182
2870.00,0.0181
2869.00,0.0180
2868.00,0.0179
2867.00,0.0177
2866.00,0.0176
2865.00,0.0175
2864.00,0.0173
2863.00,0.0172
2862.00,0.0171
2861.00,0.0171
2860.00,0.0171
2859.00,0.0171
2858.00,0.0170
2857.00,0.0170
2856.00,0.0170
2855.00,0.0170
2854.00,0.0169
2853.00,0.0169
2852.00,0.0169
2851.00,0.0167
2850.00,0.0166
2849.00,0.0164
2848.00,0.0162
2847.00,0.0161
2846.00,0.0159
2845.00,0.0157
2844.00,0.0156
2843.00,0.0155
2842.00,0.0153
2841.00,0.0152
2840.00,0.0151
2839.00,0.0150
2838.00,0.0149
2837.00,0.0148
2836.00,0.0147
2835.00,0.0146
2834.00,0.0145
2833.00,0.0145
2832.00,0.0144
2831.00,0.0143
2830.00,0.0143
2829.00,0.0142
2828.00,0.0141
2827.00,0.0141
2826.00,0.0140
2825.00,0.0140
2824.00,0.0139
2823.00,0.0138
2822.00,0.0138
2821.00,0.0137
2820.00,0.0137
2819.00,0.0136
2818.00,0.0135
2817.00,0.0135
2816.00,0.0134
2815.00,0.0133
2814.00,0.0133
2813.00,0.0132
2812.00,0.0132
2811.00,0.0132
2810.00,0.0132
2809.00,0.0131
2808.00,0.0131
2807.00,0.0130
2806.00,0.0130
2805.00,0.0130
2804.00,0.0129
2803.00,0.0129
2802.00,0.0128
2801.00,0.0127
2800.00,0.0127
2799.00,0.0126
2798.00,0.0126
2797.00,0.0126
2796.00,0.0125
2795.00,0.0125
2794.00,0.0124
2793.00,0.0124
2792.00,0.0124
2791.00,0.0124
2790.00,0.0124
2789.00,0.0123
2788.00,0.0122
2787.00,0.0121
2786.00,0.0120
2785.00,0.0120
2784.00,0.0119
2783.00,0.0119
2782.00,0.0120
2781.00,0.0119
2780.00,0.0119
2779.00,0.0119
2778.00,0.0119
2777.00,0.0118
2776.00,0.0118
2775.00,0.0118
2774.00,0.0117
2773.00,0.0117
2772.00,0.0116
2771.00,0.0115
2770.00,0.0115
2769.00,0.0115
2768.00,0.0115
2767.00,0.0115
2766.00,0.0114
2765.00,0.0114
2764.00,0.0114
2763.00,0.0113
2762.00,0.0113
2761.00,0.0113
2760.00,0.0113
2759.00,0.0112
2758.00,0.0112
2757.00,0.0111
2756.00,0.0111
2755.00,0.0111
2754.00,0.0110
2753.00,0.0110
2752.00,0.0110
2751.00,0.0110
2750.00,0.0110
2749.00,0.0109
2748.00,0.0109
2747.00,0.0109
2746.00,0.0108
2745.00,0.0108
2744.00,0.0108
2743.00,0.0108
2742.00,0.0107
2741.00,0.0107
2740.00,0.0107
2739.00,0.0107
2738.00,0.0107
2737.00,0.0106
2736.00,0.0106
2735.00,0.0106
2734.00,0.0106
2733.00,0.0106
2732.00,0.0106
2731.00,0.0106
2730.00,0.0105
2729.00,0.0105
2728.00,0.0104
2727.00,0.0104
2726.00,0.0104
2725.00,0.0103
2724.00,0.0103
2723.00,0.0103
2722.00,0.0103
2721.00,0.0103
2720.00,0.0103
2719.00,0.0102
2718.00,0.0102
2717.00,0.0102
2716.00,0.0102
2715.00,0.0102
2714.00,0.0102
2713.00,0.0101
2712.00,0.0101
2711.00,0.0101
2710.00,0.0101
2709.00,0.0101
2708.00,0.0101
2707.00,0.0100
2706.00,0.0100
2705.00,0.0100
2704.00,0.0100
2703.00,0.0100
2702.00,0.0100
2701.00,0.0099
2700.00,0.0099
2699.00,0.0099
2698.00,0.0099
2697.00,0.0099
2696.00,0.0098
2695.00,0.0098
2694.00,0.0097
2693.00,0.0097
2692.00,0.0097
2691.00,0.0097
2690.00,0.0097
2689.00,0.0097
2688.00,0.0097
2687.00,0.0096
2686.00,0.0096
2685.00,0.0097
2684.00,0.0097
2683.00,0.0096
2682.00,0.0096
2681.00,0.0096
2680.00,0.0096
2679.00,0.0096
2678.00,0.0096
2677.00,0.0096
2676.00,0.0095
2675.00,0.0095
2674.00,0.0095
2673.00,0.0094
2672.00,0.0094
2671.00,0.0094
2670.00,0.0094
2669.00,0.0094
2668.00,0.0094
2667.00,0.0094
2666.00,0.0095
2665.00,0.0095
2664.00,0.0095
2663.00,0.0096
2662.00,0.0096
2661.00,0.0097
2660.00,0.0097
2659.00,0.0097
2658.00,0.0097
2657.00,0.0097
2656.00,0.0097
2655.00,0.0097
2654.00,0.0098
2653.00,0.0098
2652.00,0.0097
2651.00,0.0097
2650.00,0.0097
2649.00,0.0097
2648.00,0.0097
2647.00,0.0097
2646.00,0.0096
2645.00,0.0096
2644.00,0.0095
2643.00,0.0095
2642.00,0.0095
2641.00,0.0094
2640.00,0.0094
2639.00,0.0094
2638.00,0.0093
2637.00,0.0093
2636.00,0.0093
2635.00,0.0093
2634.00,0.0093
2633.00,0.0092
2632.00,0.0092
2631.00,0.0092
2630.00,0.0091
2629.00,0.0091
2628.00,0.0091
2627.00,0.0090
2626.00,0.0090
2625.00,0.0090
2624.00,0.0089
2623.00,0.0089
2622.00,0.0088
2621.00,0.0088
2620.00,0.0088
2619.00,0.0088
2618.00,0.0088
2617.00,0.0088
2616.00,0.0087
2615.00,0.0087
2614.00,0.0086
2613.00,0.0086
2612.00,0.0086
2611.00,0.0086
2610.00,0.0086
2609.00,0.0086
2608.00,0.0085
2607.00,0.0085
2606.00,0.0084
2605.00,0.0084
2604.00,0.0083
2603.00,0.0083
2602.00,0.0083
2601.00,0.0083
2600.00,0.0083
2599.00,0.0082
2598.00,0.0082
2597.00,0.0081
2596.00,0.0081
2595.00,0.0081
2594.00,0.0081
2593.00,0.0081
2592.00,0.0080
2591.00,0.0080
2590.00,0.0080
2589.00,0.0080
2588.00,0.0079
2587.00,0.0079
2586.00,0.0079
2585.00,0.0079
2584.00,0.0079
2583.00,0.0079
2582.00,0.0079
2581.00,0.0079
2580.00,0.0079
2579.00,0.0079
2578.00,0.0079
2577.00,0.0078
2576.00,0.0078
2575.00,0.0077
2574.00,0.0077
2573.00,0.0077
2572.00,0.0077
2571.00,0.0077
2570.00,0.0077
2569.00,0.0077
2568.00,0.0077
2567.00,0.0076
2566.00,0.0076
2565.00,0.0075
2564.00,0.0075
2563.00,0.0075
2562.00,0.0076
2561.00,0.0076
2560.00,0.0075
2559.00,0.0075
2558.00,0.0074
2557.00,0.0074
2556.00,0.0074
2555.00,0.0074
2554.00,0.0075
2553.00,0.0075
2552.00,0.0075
2551.00,0.0075
2550.00,0.0074
2549.00,0.0074
2548.00,0.0073
2547.00,0.0073
2546.00,0.0073
2545.00,0.0073
2544.00,0.0073
2543.00,0.0072
2542.00,0.0072
2541.00,0.0073
2540.00,0.0073
2539.00,0.0073
2538.00,0.0073
2537.00,0.0073
2536.00,0.0073
2535.00,0.0073
2534.00,0.0073
2533.00,0.0072
2532.00,0.0072
2531.00,0.0072
2530.00,0.0071
2529.00,0.0071
2528.00,0.0071
2527.00,0.0070
2526.00,0.0070
2525.00,0.0070
2524.00,0.0070
2523.00,0.0071
2522.00,0.0071
2521.00,0.0071
2520.00,0.0071
2519.00,0.0071
2518.00,0.0071
2517.00,0.0071
2516.00,0.0071
2515.00,0.0071
2514.00,0.0071
2513.00,0.0070
2512.00,0.0070
2511.00,0.0071
2510.00,0.0071
2509.00,0.0072
2508.00,0.0072
2507.00,0.0072
2506.00,0.0072
2505.00,0.0071
2504.00,0.0070
2503.00,0.0070
2502.00,0.0070
2501.00,0.0071
2500.00,0.0071
2499.00,0.0072
2498.00,0.0072
2497.00,0.0071
2496.00,0.0071
2495.00,0.0071
2494.00,0.0072
2493.00,0.0072
2492.00,0.0072
2491.00,0.0071
2490.00,0.0071
2489.00,0.0070
2488.00,0.0070
2487.00,0.0070
2486.00,0.0070
2485.00,0.0069
2484.00,0.0070
2483.00,0.0070
2482.00,0.0070
2481.00,0.0069
2480.00,0.0069
2479.00,0.0069
2478.00,0.0069
2477.00,0.0069
2476.00,0.0069
2475.00,0.0069
2474.00,0.0069
2473.00,0.0070
2472.00,0.0070
2471.00,0.0070
2470.00,0.0070
2469.00,0.0070
2468.00,0.0069
2467.00,0.0069
2466.00,0.0069
2465.00,0.0070
2464.00,0.0070
2463.00,0.0070
2462.00,0.0070
2461.00,0.0071
2460.00,0.0071
2459.00,0.0072
2458.00,0.0072
2457.00,0.0072
2456.00,0.0071
2455.00,0.0071
2454.00,0.0072
2453.00,0.0072
2452.00,0.0072
2451.00,0.0072
2450.00,0.0072
2449.00,0.0071
2448.00,0.0071
2447.00,0.0071
2446.00,0.0071
2445.00,0.0071
2444.00,0.0071
2443.00,0.0070
2442.00,0.0070
2441.00,0.0070
2440.00,0.0071
2439.00,0.0071
2438.00,0.0071
2437.00,0.0071
2436.00,0.0071
2435.00,0.0070
2434.00,0.0070
2433.00,0.0070
2432.00,0.0071
2431.00,0.0071
2430.00,0.0070
2429.00,0.0070
2428.00,0.0070
2427.00,0.0070
2426.00,0.0070
2425.00,0.0070
2424.00,0.0069
2423.00,0.0069
2422.00,0.0069
2421.00,0.0070
2420.00,0.0070
2419.00,0.0070
2418.00,0.0070
2417.00,0.0070
2416.00,0.0070
2415.00,0.0069
2414.00,0.0069
2413.00,0.0069
2412.00,0.0070
2411.00,0.0070
2410.00,0.0070
2409.00,0.0070
2408.00,0.0069
2407.00,0.0069
2406.00,0.0068
2405.00,0.0068
2404.00,0.0068
2403.00,0.0068
2402.00,0.0068
2401.00,0.0068
2400.00,0.0068
2399.00,0.0068
2398.00,0.0069
2397.00,0.0069
2396.00,0.0070
2395.00,0.0070
2394.00,0.0071
2393.00,0.0071
2392.00,0.0071
2391.00,0.0071
2390.00,0.0070
2389.00,0.0070
2388.00,0.0069
2387.00,0.0069
2386.00,0.0068
2385.00,0.0068
2384.00,0.0068
2383.00,0.0069
2382.00,0.0069
2381.00,0.0068
2380.00,0.0068
2379.00,0.0067
2378.00,0.0067
2377.00,0.0067
2376.00,0.0067
2375.00,0.0068
2374.00,0.0069
2373.00,0.0069
2372.00,0.0069
2371.00,0.0070
2370.00,0.0070
2369.00,0.0071
2368.00,0.0071
2367.00,0.0071
2366.00,0.0071
2365.00,0.0071
2364.00,0.0071
2363.00,0.0072
2362.00,0.0073
2361.00,0.0074
2360.00,0.0074
2359.00,0.0075
2358.00,0.0075
2357.00,0.0075
2356.00,0.0076
2355.00,0.0076
2354.00,0.0076
2353.00,0.0077
2352.00,0.0077
2351.00,0.0077
2350.00,0.0078
2349.00,0.0079
2348.00,0.0080
2347.00,0.0080
2346.00,0.0081
2345.00,0.0081
2344.00,0.0081
2343.00,0.0082
2342.00,0.0083
2341.00,0.0084
2340.00,0.0086
2339.00,0.0087
2338.00,0.0087
2337.00,0.0087
2336.00,0.0086
2335.00,0.0086
2334.00,0.0086
2333.00,0.0086
2332.00,0.0086
2331.00,0.0086
2330.00,0.0086
2329.00,0.0087
2328.00,0.0090
2327.00,0.0094
2326.00,0.0100
2325.00,0.0106
2324.00,0.0110
2323.00,0.0110
2322.00,0.0108
2321.00,0.0104
2320.00,0.0102
2319.00,0.0100
2318.00,0.0099
2317.00,0.0099
2316.00,0.0098
2315.00,0.0098
2314.00,0.0098
2313.00,0.0098
2312.00,0.0098
2311.00,0.0098
2310.00,0.0097
2309.00,0.0097
2308.00,0.0096
2307.00,0.0096
2306.00,0.0096
2305.00,0.0096
2304.00,0.0097
2303.00,0.0097
2302.00,0.0098
2301.00,0.0098
2300.00,0.0098
2299.00,0.0098
2298.00,0.0098
2297.00,0.0099
2296.00,0.0100
2295.00,0.0101
2294.00,0.0102
2293.00,0.0104
2292.00,0.0105
2291.00,0.0106
2290.00,0.0107
2289.00,0.0107
2288.00,0.0108
2287.00,0.0109
2286.00,0.0109
2285.00,0.0109
2284.00,0.0109
2283.00,0.0108
2282.00,0.0107
2281.00,0.0106
2280.00,0.0105
2279.00,0.0104
2278.00,0.0102
2277.00,0.0101
2276.00,0.0101
2275.00,0.0100
2274.00,0.0100
2273.00,0.0099
2272.00,0.0099
2271.00,0.0099
2270.00,0.0100
2269.00,0.0100
2268.00,0.0099
2267.00,0.0098
2266.00,0.0096
2265.00,0.0095
2264.00,0.0095
2263.00,0.0096
2262.00,0.0096
2261.00,0.0096
2260.00,0.0095
2259.00,0.0095
2258.00,0.0096
2257.00,0.0096
2256.00,0.0095
2255.00,0.0094
2254.00,0.0093
2253.00,0.0092
2252.00,0.0091
2251.00,0.0091
2250.00,0.0091
2249.00,0.0092
2248.00,0.0093
2247.00,0.0094
2246.00,0.0096
2245.00,0.0096
2244.00,0.0096
2243.00,0.0095
2242.00,0.0094
2241.00,0.0094
2240.00,0.0094
2239.00,0.0094
2238.00,0.0094
2237.00,0.0095
2236.00,0.0095
2235.00,0.0095
2234.00,0.0095
2233.00,0.0095
2232.00,0.0095
2231.00,0.0094
2230.00,0.0092
2229.00,0.0091
2228.00,0.0090
2227.00,0.0090
2226.00,0.0091
2225.00,0.0092
2224.00,0.0093
2223.00,0.0092
2222.00,0.0092
2221.00,0.0091
2220.00,0.0090
2219.00,0.0089
2218.00,0.0088
2217.00,0.0089
2216.00,0.0089
2215.00,0.0089
2214.00,0.0089
2213.00,0.0088
2212.00,0.0089
2211.00,0.0091
2210.00,0.0092
2209.00,0.0092
2208.00,0.0092
2207.00,0.0093
2206.00,0.0093
2205.00,0.0093
2204.00,0.0092
2203.00,0.0091
2202.00,0.0090
2201.00,0.0091
2200.00,0.0093
2199.00,0.0095
2198.00,0.0097
2197.00,0.0098
2196.00,0.0098
2195.00,0.0097
2194.00,0.0095
2193.00,0.0093
2192.00,0.0092
2191.00,0.0093
2190.00,0.0094
2189.00,0.0096
2188.00,0.0097
2187.00,0.0096
2186.00,0.0096
2185.00,0.0095
2184.00,0.0096
2183.00,0.0095
2182.00,0.0093
2181.00,0.0091
2180.00,0.0091
2179.00,0.0093
2178.00,0.0095
2177.00,0.0095
2176.00,0.0094
2175.00,0.0090
2174.00,0.0087
2173.00,0.0085
2172.00,0.0085
2171.00,0.0086
2170.00,0.0089
2169.00,0.0093
2168.00,0.0099
2167.00,0.0104
2166.00,0.0107
2165.00,0.0108
2164.00,0.0109
2163.00,0.0110
2162.00,0.0109
2161.00,0.0103
2160.00,0.0088
2159.00,0.0066
2158.00,0.0046
2157.00,0.0036
2156.00,0.0035
2155.00,0.0038
2154.00,0.0043
2153.00,0.0048
2152.00,0.0053
2151.00,0.0059
2150.00,0.0064
2149.00,0.0066
2148.00,0.0067
2147.00,0.0066
2146.00,0.0065
2145.00,0.0064
2144.00,0.0063
2143.00,0.0064
2142.00,0.0067
2141.00,0.0070
2140.00,0.0072
2139.00,0.0073
2138.00,0.0072
2137.00,0.0071
2136.00,0.0070
2135.00,0.0068
2134.00,0.0066
2133.00,0.0066
2132.00,0.0068
2131.00,0.0071
2130.00,0.0074
2129.00,0.0077
2128.00,0.0079
2127.00,0.0082
2126.00,0.0084
2125.00,0.0087
2124.00,0.0090
2123.00,0.0092
2122.00,0.0094
2121.00,0.0095
2120.00,0.0097
2119.00,0.0098
2118.00,0.0100
2117.00,0.0103
2116.00,0.0107
2115.00,0.0109
2114.00,0.0110
2113.00,0.0110
2112.00,0.0110
2111.00,0.0109
2110.00,0.0108
2109.00,0.0107
2108.00,0.0106
2107.00,0.0107
2106.00,0.0107
2105.00,0.0107
2104.00,0.0107
2103.00,0.0107
2102.00,0.0107
2101.00,0.0107
2100.00,0.0108
2099.00,0.0109
2098.00,0.0109
2097.00,0.0108
2096.00,0.0107
2095.00,0.0105
2094.00,0.0104
2093.00,0.0103
2092.00,0.0104
2091.00,0.0106
2090.00,0.0106
2089.00,0.0106
2088.00,0.0106
2087.00,0.0106
2086.00,0.0106
2085.00,0.0107
2084.00,0.0107
2083.00,0.0107
2082.00,0.0107
2081.00,0.0107
2080.00,0.0108
2079.00,0.0110
2078.00,0.0110
2077.00,0.0111
2076.00,0.0110
2075.00,0.0109
2074.00,0.0107
2073.00,0.0105
2072.00,0.0104
2071.00,0.0104
2070.00,0.0104
2069.00,0.0104
2068.00,0.0104
2067.00,0.0103
2066.00,0.0101
2065.00,0.0100
2064.00,0.0100
2063.00,0.0101
2062.00,0.0101
2061.00,0.0100
2060.00,0.0100
2059.00,0.0098
2058.00,0.0097
2057.00,0.0096
2056.00,0.0095
2055.00,0.0095
2054.00,0.0097
2053.00,0.0102
2052.00,0.0109
2051.00,0.0112
2050.00,0.0111
2049.00,0.0107
2048.00,0.0103
2047.00,0.0099
2046.00,0.0098
2045.00,0.0096
2044.00,0.0095
2043.00,0.0094
2042.00,0.0093
2041.00,0.0093
2040.00,0.0095
2039.00,0.0096
2038.00,0.0097
2037.00,0.0096
2036.00,0.0094
2035.00,0.0090
2034.00,0.0085
2033.00,0.0079
2032.00,0.0075
2031.00,0.0070
2030.00,0.0066
2029.00,0.0063
2028.00,0.0064
2027.00,0.0067
2026.00,0.0070
2025.00,0.0073
2024.00,0.0077
2023.00,0.0080
2022.00,0.0082
2021.00,0.0081
2020.00,0.0078
2019.00,0.0075
2018.00,0.0071
2017.00,0.0069
2016.00,0.0069
2015.00,0.0069
2014.00,0.0069
2013.00,0.0070
2012.00,0.0071
2011.00,0.0072
2010.00,0.0073
2009.00,0.0072
2008.00,0.0069
2007.00,0.0064
2006.00,0.0058
2005.00,0.0056
2004.00,0.0058
2003.00,0.0061
2002.00,0.0064
2001.00,0.0067
2000.00,0.0069
1999.00,0.0072
1998.00,0.0075
1997.00,0.0077
1996.00,0.0079
1995.00,0.0080
1994.00,0.0081
1993.00,0.0082
1992.00,0.0083
1991.00,0.0085
1990.00,0.0085
1989.00,0.0084
1988.00,0.0083
1987.00,0.0083
1986.00,0.0082
1985.00,0.0083
1984.00,0.0085
1983.00,0.0088
1982.00,0.0091
1981.00,0.0095
1980.00,0.0098
1979.00,0.0097
1978.00,0.0089
1977.00,0.0078
1976.00,0.0067
1975.00,0.0061
1974.00,0.0057
1973.00,0.0055
1972.00,0.0055
1971.00,0.0055
1970.00,0.0056
1969.00,0.0057
1968.00,0.0058
1967.00,0.0058
1966.00,0.0058
1965.00,0.0057
1964.00,0.0058
1963.00,0.0059
1962.00,0.0058
1961.00,0.0058
1960.00,0.0057
1959.00,0.0056
1958.00,0.0054
1957.00,0.0055
1956.00,0.0057
1955.00,0.0060
1954.00,0.0063
1953.00,0.0064
1952.00,0.0065
1951.00,0.0065
1950.00,0.0065
1949.00,0.0066
1948.00,0.0067
1947.00,0.0068
1946.00,0.0067
1945.00,0.0065
1944.00,0.0064
1943.00,0.0063
1942.00,0.0064
1941.00,0.0065
1940.00,0.0067
1939.00,0.0067
1938.00,0.0067
1937.00,0.0067
1936.00,0.0067
1935.00,0.0067
1934.00,0.0068
1933.00,0.0068
1932.00,0.0068
1931.00,0.0068
1930.00,0.0068
1929.00,0.0068
1928.00,0.0069
1927.00,0.0070
1926.00,0.0071
1925.00,0.0072
1924.00,0.0073
1923.00,0.0074
1922.00,0.0073
1921.00,0.0072
1920.00,0.0072
1919.00,0.0072
1918.00,0.0071
1917.00,0.0071
1916.00,0.0071
1915.00,0.0072
1914.00,0.0072
1913.00,0.0073
1912.00,0.0075
1911.00,0.0077
1910.00,0.0078
1909.00,0.0079
1908.00,0.0079
1907.00,0.0078
1906.00,0.0076
1905.00,0.0075
1904.00,0.0075
1903.00,0.0075
1902.00,0.0074
1901.00,0.0074
1900.00,0.0074
1899.00,0.0074
1898.00,0.0074
1897.00,0.0074
1896.00,0.0075
1895.00,0.0075
1894.00,0.0075
1893.00,0.0075
1892.00,0.0075
1891.00,0.0075
1890.00,0.0075
1889.00,0.0074
1888.00,0.0074
1887.00,0.0075
1886.00,0.0074
1885.00,0.0074
1884.00,0.0074
1883.00,0.0074
1882.00,0.0075
1881.00,0.0075
1880.00,0.0076
1879.00,0.0075
1878.00,0.0075
1877.00,0.0074
1876.00,0.0074
1875.00,0.0074
1874.00,0.0074
1873.00,0.0074
1872.00,0.0075
1871.00,0.0075
1870.00,0.0075
1869.00,0.0075
1868.00,0.0075
1867.00,0.0075
1866.00,0.0076
1865.00,0.0076
1864.00,0.0076
1863.00,0.0076
1862.00,0.0076
1861.00,0.0076
1860.00,0.0076
1859.00,0.0076
1858.00,0.0075
1857.00,0.0075
1856.00,0.0076
1855.00,0.0076
1854.00,0.0076
1853.00,0.0075
1852.00,0.0076
1851.00,0.0077
1850.00,0.0077
1849.00,0.0078
1848.00,0.0080
1847.00,0.0081
1846.00,0.0081
1845.00,0.0080
1844.00,0.0080
1843.00,0.0079
1842.00,0.0079
1841.00,0.0079
1840.00,0.0080
1839.00,0.0080
1838.00,0.0080
1837.00,0.0080
1836.00,0.0080
1835.00,0.0081
1834.00,0.0082
1833.00,0.0083
1832.00,0.0083
1831.00,0.0083
1830.00,0.0082
1829.00,0.0083
1828.00,0.0085
1827.00,0.0086
1826.00,0.0086
1825.00,0.0085
1824.00,0.0084
1823.00,0.0084
1822.00,0.0084
1821.00,0.0084
1820.00,0.0084
1819.00,0.0084
1818.00,0.0083
1817.00,0.0082
1816.00,0.0082
1815.00,0.0083
1814.00,0.0084
1813.00,0.0085
1812.00,0.0086
1811.00,0.0087
1810.00,0.0087
1809.00,0.0088
1808.00,0.0089
1807.00,0.0090
1806.00,0.0091
1805.00,0.0092
1804.00,0.0094
1803.00,0.0094
1802.00,0.0094
1801.00,0.0094
1800.00,0.0095
1799.00,0.0095
1798.00,0.0096
1797.00,0.0097
1796.00,0.0099
1795.00,0.0100
1794.00,0.0100
1793.00,0.0100
1792.00,0.0099
1791.00,0.0099
1790.00,0.0099
1789.00,0.0100
1788.00,0.0102
1787.00,0.0103
1786.00,0.0103
1785.00,0.0103
1784.00,0.0103
1783.00,0.0103
1782.00,0.0103
1781.00,0.0104
1780.00,0.0104
1779.00,0.0104
1778.00,0.0104
1777.00,0.0105
1776.00,0.0106
1775.00,0.0107
1774.00,0.0108
1773.00,0.0109
1772.00,0.0111
1771.00,0.0112
1770.00,0.0112
1769.00,0.0113
1768.00,0.0113
1767.00,0.0114
1766.00,0.0115
1765.00,0.0116
1764.00,0.0117
1763.00,0.0118
1762.00,0.0118
1761.00,0.0118
1760.00,0.0120
1759.00,0.0121
1758.00,0.0123
1757.00,0.0124
1756.00,0.0125
1755.00,0.0126
1754.00,0.0127
1753.00,0.0128
1752.00,0.0129
1751.00,0.0129
1750.00,0.0130
1749.00,0.0131
1748.00,0.0133
1747.00,0.0134
1746.00,0.0136
1745.00,0.0137
1744.00,0.0140
1743.00,0.0142
1742.00,0.0144
1741.00,0.0145
1740.00,0.0146
1739.00,0.0147
1738.00,0.0149
1737.00,0.0151
1736.00,0.0153
1735.00,0.0153
1734.00,0.0154
1733.00,0.0156
1732.00,0.0159
1731.00,0.0163
1730.00,0.0166
1729.00,0.0168
1728.00,0.0171
1727.00,0.0173
1726.00,0.0175
1725.00,0.0177
1724.00,0.0180
1723.00,0.0183
1722.00,0.0186
1721.00,0.0189
1720.00,0.0191
1719.00,0.0192
1718.00,0.0194
1717.00,0.0198
1716.00,0.0204
1715.00,0.0210
1714.00,0.0213
1713.00,0.0216
1712.00,0.0220
1711.00,0.0224
1710.00,0.0228
1709.00,0.0232
1708.00,0.0237
1707.00,0.0242
1706.00,0.0248
1705.00,0.0254
1704.00,0.0261
1703.00,0.0268
1702.00,0.0272
1701.00,0.0276
1700.00,0.0282
1699.00,0.0289
1698.00,0.0294
1697.00,0.0300
1696.00,0.0308
1695.00,0.0319
1694.00,0.0328
1693.00,0.0336
1692.00,0.0343
1691.00,0.0350
1690.00,0.0358
1689.00,0.0367
1688.00,0.0375
1687.00,0.0382
1686.00,0.0388
1685.00,0.0399
1684.00,0.0416
1683.00,0.0434
1682.00,0.0445
1681.00,0.0454
1680.00,0.0464
1679.00,0.0474
1678.00,0.0484
1677.00,0.0493
1676.00,0.0505
1675.00,0.0519
1674.00,0.0532
1673.00,0.0543
1672.00,0.0553
1671.00,0.0563
1670.00,0.0576
1669.00,0.0591
1668.00,0.0606
1667.00,0.0619
1666.00,0.0628
1665.00,0.0637
1664.00,0.0647
1663.00,0.0660
1662.00,0.0674
1661.00,0.0687
1660.00,0.0699
1659.00,0.0709
1658.00,0.0718
1657.00,0.0726
1656.00,0.0731
1655.00,0.0734
1654.00,0.0742
1653.00,0.0763
1652.00,0.0786
1651.00,0.0798
1650.00,0.0802
1649.00,0.0803
1648.00,0.0807
1647.00,0.0816
1646.00,0.0829
1645.00,0.0838
1644.00,0.0843
1643.00,0.0845
1642.00,0.0845
1641.00,0.0846
1640.00,0.0847
1639.00,0.0848
1638.00,0.0846
1637.00,0.0845
1636.00,0.0847
1635.00,0.0851
1634.00,0.0852
1633.00,0.0849
1632.00,0.0843
1631.00,0.0836
1630.00,0.0828
1629.00,0.0820
1628.00,0.0813
1627.00,0.0806
1626.00,0.0799
1625.00,0.0789
1624.00,0.0777
1623.00,0.0765
1622.00,0.0754
1621.00,0.0743
1620.00,0.0731
1619.00,0.0718
1618.00,0.0703
1617.00,0.0689
1616.00,0.0677
1615.00,0.0667
1614.00,0.0656
1613.00,0.0644
1612.00,0.0631
1611.00,0.0619
1610.00,0.0606
1609.00,0.0593
1608.00,0.0581
1607.00,0.0570
1606.00,0.0559
1605.00,0.0548
1604.00,0.0538
1603.00,0.0528
1602.00,0.0519
1601.00,0.0510
1600.00,0.0500
1599.00,0.0492
1598.00,0.0483
1597.00,0.0475
1596.00,0.0468
1595.00,0.0460
1594.00,0.0453
1593.00,0.0446
1592.00,0.0440
1591.00,0.0433
1590.00,0.0427
1589.00,0.0422
1588.00,0.0416
1587.00,0.0411
1586.00,0.0406
1585.00,0.0401
1584.00,0.0396
1583.00,0.0392
1582.00,0.0388
1581.00,0.0385
1580.00,0.0381
1579.00,0.0378
1578.00,0.0375
1577.00,0.0371
1576.00,0.0368
1575.00,0.0365
1574.00,0.0362
1573.00,0.0359
1572.00,0.0357
1571.00,0.0355
1570.00,0.0352
1569.00,0.0350
1568.00,0.0348
1567.00,0.0346
1566.00,0.0345
1565.00,0.0343
1564.00,0.0342
1563.00,0.0341
1562.00,0.0341
1561.00,0.0340
1560.00,0.0336
1559.00,0.0334
1558.00,0.0335
1557.00,0.0334
1556.00,0.0332
1555.00,0.0329
1554.00,0.0326
1553.00,0.0323
1552.00,0.0321
1551.00,0.0319
1550.00,0.0316
1549.00,0.0313
1548.00,0.0312
1547.00,0.0310
1546.00,0.0309
1545.00,0.0307
1544.00,0.0305
1543.00,0.0303
1542.00,0.0299
1541.00,0.0293
1540.00,0.0290
1539.00,0.0288
1538.00,0.0287
1537.00,0.0288
1536.00,0.0288
1535.00,0.0286
1534.00,0.0283
1533.00,0.0281
1532.00,0.0279
1531.00,0.0278
1530.00,0.0277
1529.00,0.0276
1528.00,0.0274
1527.00,0.0273
1526.00,0.0272
1525.00,0.0271
1524.00,0.0269
1523.00,0.0267
1522.00,0.0265
1521.00,0.0265
1520.00,0.0265
1519.00,0.0265
1518.00,0.0263
1517.00,0.0261
1516.00,0.0260
1515.00,0.0259
1514.00,0.0258
1513.00,0.0258
1512.00,0.0258
1511.00,0.0257
1510.00,0.0256
1509.00,0.0254
1508.00,0.0251
1507.00,0.0250
1506.00,0.0249
1505.00,0.0249
1504.00,0.0249
1503.00,0.0249
1502.00,0.0250
1501.00,0.0250
1500.00,0.0250
1499.00,0.0249
1498.00,0.0248
1497.00,0.0247
1496.00,0.0247
1495.00,0.0247
1494.00,0.0249
1493.00,0.0251
1492.00,0.0252
1491.00,0.0253
1490.00,0.0254
1489.00,0.0255
1488.00,0.0257
1487.00,0.0258
1486.00,0.0258
1485.00,0.0259
1484.00,0.0261
1483.00,0.0263
1482.00,0.0265
1481.00,0.0267
1480.00,0.0270
1479.00,0.0273
1478.00,0.0276
1477.00,0.0279
1476.00,0.0281
1475.00,0.0283
1474.00,0.0284
1473.00,0.0285
1472.00,0.0287
1471.00,0.0289
1470.00,0.0290
1469.00,0.0291
1468.00,0.0292
1467.00,0.0293
1466.00,0.0294
1465.00,0.0295
1464.00,0.0296
1463.00,0.0298
1462.00,0.0300
1461.00,0.0301
1460.00,0.0302
1459.00,0.0302
1458.00,0.0303
1457.00,0.0305
1456.00,0.0307
1455.00,0.0309
1454.00,0.0310
1453.00,0.0311
1452.00,0.0311
1451.00,0.0311
1450.00,0.0312
1449.00,0.0312
1448.00,0.0313
1447.00,0.0314
1446.00,0.0315
1445.00,0.0316
1444.00,0.0317
1443.00,0.0318
1442.00,0.0319
1441.00,0.0321
1440.00,0.0323
1439.00,0.0325
1438.00,0.0327
1437.00,0.0328
1436.00,0.0329
1435.00,0.0330
1434.00,0.0332
1433.00,0.0333
1432.00,0.0335
1431.00,0.0336
1430.00,0.0337
1429.00,0.0338
1428.00,0.0339
1427.00,0.0340
1426.00,0.0341
1425.00,0.0342
1424.00,0.0343
1423.00,0.0345
1422.00,0.0346
1421.00,0.0347
1420.00,0.0347
1419.00,0.0348
1418.00,0.0349
1417.00,0.0349
1416.00,0.0350
1415.00,0.0350
1414.00,0.0350
1413.00,0.0351
1412.00,0.0351
1411.00,0.0352
1410.00,0.0353
1409.00,0.0354
1408.00,0.0354
1407.00,0.0355
1406.00,0.0356
1405.00,0.0356
1404.00,0.0356
1403.00,0.0356
1402.00,0.0356
1401.00,0.0355
1400.00,0.0354
1399.00,0.0353
1398.00,0.0352
1397.00,0.0352
1396.00,0.0351
1395.00,0.0351
1394.00,0.0350
1393.00,0.0350
1392.00,0.0351
1391.00,0.0352
1390.00,0.0354
1389.00,0.0357
1388.00,0.0362
1387.00,0.0367
1386.00,0.0373
1385.00,0.0378
1384.00,0.0383
1383.00,0.0389
1382.00,0.0394
1381.00,0.0399
1380.00,0.0403
1379.00,0.0406
1378.00,0.0408
1377.00,0.0409
1376.00,0.0410
1375.00,0.0411
1374.00,0.0412
1373.00,0.0412
1372.00,0.0411
1371.00,0.0410
1370.00,0.0408
1369.00,0.0406
1368.00,0.0404
1367.00,0.0402
1366.00,0.0400
1365.00,0.0399
1364.00,0.0397
1363.00,0.0396
1362.00,0.0396
1361.00,0.0396
1360.00,0.0396
1359.00,0.0395
1358.00,0.0395
1357.00,0.0394
1356.00,0.0394
1355.00,0.0393
1354.00,0.0392
1353.00,0.0391
1352.00,0.0389
1351.00,0.0387
1350.00,0.0383
1349.00,0.0380
1348.00,0.0376
1347.00,0.0372
1346.00,0.0368
1345.00,0.0365
1344.00,0.0362
1343.00,0.0359
1342.00,0.0357
1341.00,0.0355
1340.00,0.0354
1339.00,0.0353
1338.00,0.0352
1337.00,0.0351
1336.00,0.0350
1335.00,0.0349
1334.00,0.0348
1333.00,0.0347
1332.00,0.0347
1331.00,0.0346
1330.00,0.0346
1329.00,0.0346
1328.00,0.0347
1327.00,0.0348
1326.00,0.0349
1325.00,0.0350
1324.00,0.0350
1323.00,0.0351
1322.00,0.0352
1321.00,0.0353
1320.00,0.0354
1319.00,0.0355
1318.00,0.0355
1317.00,0.0356
1316.00,0.0357
1315.00,0.0358
1314.00,0.0359
1313.00,0.0361
1312.00,0.0362
1311.00,0.0364
1310.00,0.0365
1309.00,0.0367
1308.00,0.0369
1307.00,0.0371
1306.00,0.0373
1305.00,0.0376
1304.00,0.0379
1303.00,0.0382
1302.00,0.0385
1301.00,0.0390
1300.00,0.0394
1299.00,0.0399
1298.00,0.0405
1297.00,0.0411
1296.00,0.0419
1295.00,0.0427
1294.00,0.0436
1293.00,0.0445
1292.00,0.0456
1291.00,0.0466
1290.00,0.0478
1289.00,0.0489
1288.00,0.0501
1287.00,0.0514
1286.00,0.0527
1285.00,0.0542
1284.00,0.0557
1283.00,0.0572
1282.00,0.0588
1281.00,0.0605
1280.00,0.0622
1279.00,0.0640
1278.00,0.0658
1277.00,0.0676
1276.00,0.0694
1275.00,0.0713
1274.00,0.0732
1273.00,0.0752
1272.00,0.0772
1271.00,0.0791
1270.00,0.0810
1269.00,0.0827
1268.00,0.0844
1267.00,0.0859
1266.00,0.0874
1265.00,0.0888
1264.00,0.0902
1263.00,0.0915
1262.00,0.0926
1261.00,0.0937
1260.00,0.0948
1259.00,0.0957
1258.00,0.0965
1257.00,0.0973
1256.00,0.0980
1255.00,0.0986
1254.00,0.0992
1253.00,0.0997
1252.00,0.1002
1251.00,0.1005
1250.00,0.1008
1249.00,0.1011
1248.00,0.1014
1247.00,0.1016
1246.00,0.1018
1245.00,0.1021
1244.00,0.1025
1243.00,0.1030
1242.00,0.1034
1241.00,0.1039
1240.00,0.1045
1239.00,0.1051
1238.00,0.1056
1237.00,0.1062
1236.00,0.1067
1235.00,0.1072
1234.00,0.1076
1233.00,0.1080
1232.00,0.1084
1231.00,0.1087
1230.00,0.1089
1229.00,0.1091
1228.00,0.1092
1227.00,0.1092
1226.00,0.1091
1225.00,0.1090
1224.00,0.1089
1223.00,0.1087
1222.00,0.1084
1221.00,0.1081
1220.00,0.1077
1219.00,0.1072
1218.00,0.1066
1217.00,0.1059
1216.00,0.1051
1215.00,0.1043
1214.00,0.1034
1213.00,0.1024
1212.00,0.1014
1211.00,0.1003
1210.00,0.0991
1209.00,0.0979
1208.00,0.0968
1207.00,0.0956
1206.00,0.0944
1205.00,0.0932
1204.00,0.0921
1203.00,0.0910
1202.00,0.0899
1201.00,0.0890
1200.00,0.0882
1199.00,0.0876
1198.00,0.0872
1197.00,0.0870
1196.00,0.0870
1195.00,0.0871
1194.00,0.0873
1193.00,0.0874
1192.00,0.0875
1191.00,0.0873
1190.00,0.0869
1189.00,0.0864
1188.00,0.0857
1187.00,0.0850
1186.00,0.0843
1185.00,0.0838
1184.00,0.0833
1183.00,0.0829
1182.00,0.0827
1181.00,0.0826
1180.00,0.0828
1179.00,0.0831
1178.00,0.0835
1177.00,0.0841
1176.00,0.0848
1175.00,0.0856
1174.00,0.0866
1173.00,0.0877
1172.00,0.0890
1171.00,0.0905
1170.00,0.0920
1169.00,0.0938
1168.00,0.0956
1167.00,0.0975
1166.00,0.0994
1165.00,0.1013
1164.00,0.1033
1163.00,0.1051
1162.00,0.1068
1161.00,0.1082
1160.00,0.1095
1159.00,0.1105
1158.00,0.1112
1157.00,0.1118
1156.00,0.1121
1155.00,0.1123
1154.00,0.1122
1153.00,0.1120
1152.00,0.1116
1151.00,0.1110
1150.00,0.1104
1149.00,0.1098
1148.00,0.1091
1147.00,0.1085
1146.00,0.1078
1145.00,0.1072
1144.00,0.1068
1143.00,0.1065
1142.00,0.1065
1141.00,0.1066
1140.00,0.1070
1139.00,0.1078
1138.00,0.1089
1137.00,0.1104
1136.00,0.1122
1135.00,0.1144
1134.00,0.1169
1133.00,0.1197
1132.00,0.1225
1131.00,0.1252
1130.00,0.1278
1129.00,0.1301
1128.00,0.1320
1127.00,0.1336
1126.00,0.1347
1125.00,0.1355
1124.00,0.1359
1123.00,0.1361
1122.00,0.1362
1121.00,0.1362
1120.00,0.1362
1119.00,0.1362
1118.00,0.1363
1117.00,0.1364
1116.00,0.1365
1115.00,0.1366
1114.00,0.1367
1113.00,0.1369
1112.00,0.1370
1111.00,0.1371
1110.00,0.1372
1109.00,0.1373
1108.00,0.1375
1107.00,0.1379
1106.00,0.1384
1105.00,0.1392
1104.00,0.1402
1103.00,0.1414
1102.00,0.1428
1101.00,0.1444
1100.00,0.1463
1099.00,0.1483
1098.00,0.1502
1097.00,0.1521
1096.00,0.1537
1095.00,0.1549
1094.00,0.1558
1093.00,0.1564
1092.00,0.1568
1091.00,0.1569
1090.00,0.1571
1089.00,0.1573
1088.00,0.1577
1087.00,0.1584
1086.00,0.1592
1085.00,0.1603
1084.00,0.1616
1083.00,0.1630
1082.00,0.1647
1081.00,0.1666
1080.00,0.1688
1079.00,0.1713
1078.00,0.1739
1077.00,0.1765
1076.00,0.1792
1075.00,0.1818
1074.00,0.1842
1073.00,0.1866
1072.00,0.1889
1071.00,0.1910
1070.00,0.1928
1069.00,0.1942
1068.00,0.1952
1067.00,0.1955
1066.00,0.1950
1065.00,0.1937
1064.00,0.1916
1063.00,0.1888
1062.00,0.1856
1061.00,0.1822
1060.00,0.1792
1059.00,0.1765
1058.00,0.1745
1057.00,0.1731
1056.00,0.1723
1055.00,0.1717
1054.00,0.1714
1053.00,0.1714
1052.00,0.1718
1051.00,0.1723
1050.00,0.1730
1049.00,0.1740
1048.00,0.1753
1047.00,0.1769
1046.00,0.1789
1045.00,0.1810
1044.00,0.1831
1043.00,0.1849
1042.00,0.1862
1041.00,0.1870
1040.00,0.1872
1039.00,0.1868
1038.00,0.1861
1037.00,0.1852
1036.00,0.1843
1035.00,0.1834
1034.00,0.1826
1033.00,0.1823
1032.00,0.1823
1031.00,0.1824
1030.00,0.1824
1029.00,0.1822
1028.00,0.1816
1027.00,0.1804
1026.00,0.1784
1025.00,0.1758
1024.00,0.1726
1023.00,0.1689
1022.00,0.1648
1021.00,0.1605
1020.00,0.1562
1019.00,0.1519
1018.00,0.1478
1017.00,0.1441
1016.00,0.1407
1015.00,0.1377
1014.00,0.1350
1013.00,0.1328
1012.00,0.1311
1011.00,0.1300
1010.00,0.1293
1009.00,0.1290
1008.00,0.1291
1007.00,0.1293
1006.00,0.1295
1005.00,0.1296
1004.00,0.1293
1003.00,0.1284
1002.00,0.1268
1001.00,0.1244
1000.00,0.1214
999.00,0.1182
998.00,0.1149
997.00,0.1120
996.00,0.1095
995.00,0.1076
994.00,0.1061
993.00,0.1050
992.00,0.1041
991.00,0.1032
990.00,0.1022
989.00,0.1010
988.00,0.0996
987.00,0.0980
986.00,0.0961
985.00,0.0943
984.00,0.0925
983.00,0.0910
982.00,0.0896
981.00,0.0886
980.00,0.0877
979.00,0.0872
978.00,0.0869
977.00,0.0868
976.00,0.0870
975.00,0.0874
974.00,0.0879
973.00,0.0884
972.00,0.0890
971.00,0.0894
970.00,0.0894
969.00,0.0889
968.00,0.0877
967.00,0.0858
966.00,0.0835
965.00,0.0809
964.00,0.0782
963.00,0.0757
962.00,0.0735
961.00,0.0717
960.00,0.0704
959.00,0.0694
958.00,0.0688
957.00,0.0685
956.00,0.0685
955.00,0.0687
954.00,0.0692
953.00,0.0699
952.00,0.0708
951.00,0.0719
950.00,0.0730
949.00,0.0744
948.00,0.0758
947.00,0.0773
946.00,0.0790
945.00,0.0810
944.00,0.0833
943.00,0.0859
942.00,0.0888
941.00,0.0921
940.00,0.0960
939.00,0.1003
938.00,0.1050
937.00,0.1099
936.00,0.1148
935.00,0.1195
934.00,0.1239
933.00,0.1279
932.00,0.1316
931.00,0.1348
930.00,0.1376
929.00,0.1402
928.00,0.1426
927.00,0.1445
926.00,0.1461
925.00,0.1473
924.00,0.1482
923.00,0.1488
922.00,0.1492
921.00,0.1494
920.00,0.1494
919.00,0.1493
918.00,0.1490
917.00,0.1486
916.00,0.1479
915.00,0.1469
914.00,0.1456
913.00,0.1441
912.00,0.1426
911.00,0.1409
910.00,0.1390
909.00,0.1370
908.00,0.1349
907.00,0.1329
906.00,0.1310
905.00,0.1294
904.00,0.1279
903.00,0.1266
902.00,0.1254
901.00,0.1243
900.00,0.1234
899.00,0.1226
898.00,0.1219
897.00,0.1213
896.00,0.1209
895.00,0.1205
894.00,0.1202
893.00,0.1200
892.00,0.1197
891.00,0.1193
890.00,0.1188
889.00,0.1181
888.00,0.1171
887.00,0.1158
886.00,0.1142
885.00,0.1121
884.00,0.1098
883.00,0.1074
882.00,0.1049
881.00,0.1027
880.00,0.1010
879.00,0.0997
878.00,0.0990
877.00,0.0986
876.00,0.0987
875.00,0.0989
874.00,0.0989
873.00,0.0988
872.00,0.0983
871.00,0.0977
870.00,0.0969
869.00,0.0962
868.00,0.0956
867.00,0.0951
866.00,0.0947
865.00,0.0946
864.00,0.0948
863.00,0.0952
862.00,0.0960
861.00,0.0971
860.00,0.0985
859.00,0.1001
858.00,0.1020
857.00,0.1043
856.00,0.1068
855.00,0.1097
854.00,0.1127
853.00,0.1158
852.00,0.1189
851.00,0.1219
850.00,0.1247
849.00,0.1272
848.00,0.1293
847.00,0.1307
846.00,0.1315
845.00,0.1316
844.00,0.1310
843.00,0.1297
842.00,0.1278
841.00,0.1255
840.00,0.1228
839.00,0.1199
838.00,0.1169
837.00,0.1139
836.00,0.1112
835.00,0.1087
834.00,0.1065
833.00,0.1045
832.00,0.1028
831.00,0.1013
830.00,0.0999
829.00,0.0986
828.00,0.0975
827.00,0.0965
826.00,0.0957
825.00,0.0951
824.00,0.0947
823.00,0.0944
822.00,0.0941
821.00,0.0938
820.00,0.0936
819.00,0.0936
818.00,0.0936
817.00,0.0938
816.00,0.0941
815.00,0.0944
814.00,0.0947
813.00,0.0951
812.00,0.0956
811.00,0.0963
810.00,0.0972
809.00,0.0982
808.00,0.0992
807.00,0.1001
806.00,0.1009
805.00,0.1018
804.00,0.1026
803.00,0.1033
802.00,0.1037
801.00,0.1041
800.00,0.1043
799.00,0.1045
798.00,0.1046
797.00,0.1046
796.00,0.1044
795.00,0.1042
794.00,0.1039
793.00,0.1036
792.00,0.1033
791.00,0.1030
790.00,0.1028
789.00,0.1026
788.00,0.1026
787.00,0.1027
786.00,0.1028
785.00,0.1031
784.00,0.1035
783.00,0.1040
782.00,0.1046
781.00,0.1053
780.00,0.1062
779.00,0.1072
778.00,0.1083
777.00,0.1096
776.00,0.1107
775.00,0.1116
774.00,0.1122
773.00,0.1126
772.00,0.1128
771.00,0.1127
770.00,0.1123
769.00,0.1117
768.00,0.1112
767.00,0.1109
766.00,0.1108
765.00,0.1108
764.00,0.1110
763.00,0.1113
762.00,0.1115
761.00,0.1118
760.00,0.1121
759.00,0.1125
758.00,0.1129
757.00,0.1135
756.00,0.1142
755.00,0.1153
754.00,0.1166
753.00,0.1181
752.00,0.1198
751.00,0.1217
750.00,0.1238
749.00,0.1260
748.00,0.1282
747.00,0.1303
746.00,0.1321
745.00,0.1339
744.00,0.1355
743.00,0.1369
742.00,0.1382
741.00,0.1395
740.00,0.1408
739.00,0.1421
738.00,0.1433
737.00,0.1445
736.00,0.1455
735.00,0.1462
734.00,0.1468
733.00,0.1472
732.00,0.1476
731.00,0.1481
730.00,0.1486
729.00,0.1491
728.00,0.1498
727.00,0.1505
726.00,0.1511
725.00,0.1516
724.00,0.1520
723.00,0.1521
722.00,0.1519
721.00,0.1518
720.00,0.1517
719.00,0.1515
718.00,0.1513
717.00,0.1512
716.00,0.1515
715.00,0.1520
714.00,0.1529
713.00,0.1540
712.00,0.1553
711.00,0.1568
710.00,0.1585
709.00,0.1602
708.00,0.1621
707.00,0.1640
706.00,0.1658
705.00,0.1673
704.00,0.1686
703.00,0.1695
702.00,0.1700
701.00,0.1702
700.00,0.1701
699.00,0.1697
698.00,0.1691
697.00,0.1683
696.00,0.1674
695.00,0.1663
694.00,0.1651
693.00,0.1638
692.00,0.1626
691.00,0.1615
690.00,0.1605
689.00,0.1595
688.00,0.1586
687.00,0.1579
686.00,0.1573
685.00,0.1568
684.00,0.1565
683.00,0.1561
682.00,0.1559
681.00,0.1558
680.00,0.1559
679.00,0.1560
678.00,0.1562
677.00,0.1565
676.00,0.1570
675.00,0.1577
674.00,0.1584
673.00,0.1589
672.00,0.1592
671.00,0.1592
670.00,0.1591
669.00,0.1597
668.00,0.1614
667.00,0.1631
666.00,0.1637
665.00,0.1635
664.00,0.1632
663.00,0.1630
662.00,0.1630
661.00,0.1630
660.00,0.1632
659.00,0.1634
658.00,0.1635
657.00,0.1637
656.00,0.1639
655.00,0.1641
654.00,0.1644
653.00,0.1647
652.00,0.1650
651.00,0.1651
650.00,0.1652
649.00,0.1653
648.00,0.1655
647.00,0.1657
646.00,0.1659
645.00,0.1661
644.00,0.1664
643.00,0.1668
642.00,0.1672
641.00,0.1676
640.00,0.1682
639.00,0.1689
638.00,0.1697
637.00,0.1706
636.00,0.1716
635.00,0.1725
634.00,0.1734
633.00,0.1742
632.00,0.1751
631.00,0.1762
630.00,0.1776
629.00,0.1796
628.00,0.1822
627.00,0.1852
626.00,0.1883
625.00,0.1913
624.00,0.1943
623.00,0.1970
622.00,0.1995
621.00,0.2021
620.00,0.2047
619.00,0.2071
618.00,0.2090
617.00,0.2104
616.00,0.2113
615.00,0.2116
614.00,0.2113
613.00,0.2109
612.00,0.2108
611.00,0.2110
610.00,0.2115
609.00,0.2121
608.00,0.2127
607.00,0.2134
606.00,0.2139
605.00,0.2143
604.00,0.2148
603.00,0.2152
602.00,0.2153
601.00,0.2152
600.00,0.2153
599.00,0.2154
598.00,0.2156
597.00,0.2161
596.00,0.2169
595.00,0.2178
594.00,0.2187
593.00,0.2196
592.00,0.2206
591.00,0.2216
590.00,0.2226
589.00,0.2239
588.00,0.2256
587.00,0.2274
586.00,0.2290
585.00,0.2305
584.00,0.2319
583.00,0.2333
582.00,0.2347
581.00,0.2365
580.00,0.2385
579.00,0.2403
578.00,0.2417
577.00,0.2430
576.00,0.2444
575.00,0.2458
574.00,0.2467
573.00,0.2473
572.00,0.2477
571.00,0.2480
570.00,0.2481
569.00,0.2485
568.00,0.2493
567.00,0.2503
566.00,0.2512
565.00,0.2520
564.00,0.2531
563.00,0.2541
562.00,0.2548
561.00,0.2555
560.00,0.2562
559.00,0.2570
558.00,0.2576
557.00,0.2582
556.00,0.2589
555.00,0.2595
554.00,0.2597
553.00,0.2599
552.00,0.2602
551.00,0.2605
550.00,0.2608
549.00,0.2613
548.00,0.2623
547.00,0.2635
546.00,0.2643
545.00,0.2648
544.00,0.2655
543.00,0.2661
542.00,0.2663
541.00,0.2664
540.00,0.2663
539.00,0.2660
538.00,0.2654
537.00,0.2648
536.00,0.2645
535.00,0.2641
534.00,0.2632
533.00,0.2620
532.00,0.2612
531.00,0.2608
530.00,0.2606
529.00,0.2604
528.00,0.2602
527.00,0.2599
526.00,0.2596
525.00,0.2596
524.00,0.2601
523.00,0.2604
522.00,0.2602
521.00,0.2601
520.00,0.2604
519.00,0.2609
518.00,0.2614
517.00,0.2620
516.00,0.2626
515.00,0.2629
514.00,0.2627
513.00,0.2622
512.00,0.2620
511.00,0.2617
510.00,0.2611
509.00,0.2605
508.00,0.2602
507.00,0.2601
506.00,0.2598
505.00,0.2595
504.00,0.2595
503.00,0.2597
502.00,0.2600
501.00,0.2606
500.00,0.2612
499.00,0.2615
498.00,0.2616
497.00,0.2619
496.00,0.2625
495.00,0.2630
494.00,0.2630
493.00,0.2630
492.00,0.2631
491.00,0.2631
490.00,0.2630
489.00,0.2630
488.00,0.2634
487.00,0.2637
486.00,0.2639
485.00,0.2643
484.00,0.2651
483.00,0.2655
482.00,0.2650
481.00,0.2644
480.00,0.2645
479.00,0.2651
478.00,0.2654
477.00,0.2654
476.00,0.2653
475.00,0.2654
474.00,0.2656
473.00,0.2662
472.00,0.2669
471.00,0.2671
470.00,0.2670
469.00,0.2675
468.00,0.2688
467.00,0.2698
466.00,0.2697
465.00,0.2693
464.00,0.2691
463.00,0.2690
462.00,0.2686
461.00,0.2681
460.00,0.2679
459.00,0.2679
458.00,0.2681
457.00,0.2690
456.00,0.2701
455.00,0.2704
454.00,0.2694
453.00,0.2685
452.00,0.2686
451.00,0.2692
450.00,0.2700
