Created as New Dataset,Sample 003 By Administrator Date Thursday, May 29 2025
cm-1,A
4000.00,0.0064
3999.00,0.0064
3998.00,0.0064
3997.00,0.0064
3996.00,0.0064
3995.00,0.0064
3994.00,0.0064
3993.00,0.0064
3992.00,0.0064
3991.00,0.0064
3990.00,0.0064
3989.00,0.0065
3988.00,0.0065
3987.00,0.0066
3986.00,0.0066
3985.00,0.0066
3984.00,0.0066
3983.00,0.0066
3982.00,0.0066
3981.00,0.0065
3980.00,0.0065
3979.00,0.0066
3978.00,0.0066
3977.00,0.0066
3976.00,0.0066
3975.00,0.0065
3974.00,0.0065
3973.00,0.0065
3972.00,0.0065
3971.00,0.0065
3970.00,0.0065
3969.00,0.0066
3968.00,0.0066
3967.00,0.0066
3966.00,0.0066
3965.00,0.0066
3964.00,0.0066
3963.00,0.0067
3962.00,0.0067
3961.00,0.0067
3960.00,0.0066
3959.00,0.0066
3958.00,0.0066
3957.00,0.0066
3956.00,0.0066
3955.00,0.0066
3954.00,0.0067
3953.00,0.0067
3952.00,0.0067
3951.00,0.0067
3950.00,0.0068
3949.00,0.0068
3948.00,0.0068
3947.00,0.0068
3946.00,0.0068
3945.00,0.0068
3944.00,0.0068
3943.00,0.0068
3942.00,0.0067
3941.00,0.0067
3940.00,0.0067
3939.00,0.0067
3938.00,0.0067
3937.00,0.0067
3936.00,0.0067
3935.00,0.0068
3934.00,0.0069
3933.00,0.0069
3932.00,0.0069
3931.00,0.0069
3930.00,0.0068
3929.00,0.0068
3928.00,0.0068
3927.00,0.0069
3926.00,0.0069
3925.00,0.0069
3924.00,0.0068
3923.00,0.0068
3922.00,0.0069
3921.00,0.0069
3920.00,0.0070
3919.00,0.0070
3918.00,0.0070
3917.00,0.0070
3916.00,0.0069
3915.00,0.0068
3914.00,0.0068
3913.00,0.0068
3912.00,0.0068
3911.00,0.0068
3910.00,0.0067
3909.00,0.0067
3908.00,0.0068
3907.00,0.0068
3906.00,0.0069
3905.00,0.0071
3904.00,0.0072
3903.00,0.0074
3902.00,0.0074
3901.00,0.0074
3900.00,0.0073
3899.00,0.0072
3898.00,0.0071
3897.00,0.0070
3896.00,0.0070
3895.00,0.0070
3894.00,0.0069
3893.00,0.0069
3892.00,0.0068
3891.00,0.0068
3890.00,0.0068
3889.00,0.0069
3888.00,0.0070
3887.00,0.0071
3886.00,0.0071
3885.00,0.0071
3884.00,0.0071
3883.00,0.0071
3882.00,0.0072
3881.00,0.0072
3880.00,0.0071
3879.00,0.0070
3878.00,0.0070
3877.00,0.0070
3876.00,0.0071
3875.00,0.0071
3874.00,0.0071
3873.00,0.0070
3872.00,0.0071
3871.00,0.0073
3870.00,0.0073
3869.00,0.0072
3868.00,0.0072
3867.00,0.0072
3866.00,0.0074
3865.00,0.0073
3864.00,0.0072
3863.00,0.0071
3862.00,0.0070
3861.00,0.0071
3860.00,0.0071
3859.00,0.0071
3858.00,0.0070
3857.00,0.0068
3856.00,0.0068
3855.00,0.0069
3854.00,0.0069
3853.00,0.0070
3852.00,0.0070
3851.00,0.0070
3850.00,0.0070
3849.00,0.0071
3848.00,0.0071
3847.00,0.0072
3846.00,0.0072
3845.00,0.0072
3844.00,0.0072
3843.00,0.0072
3842.00,0.0072
3841.00,0.0072
3840.00,0.0072
3839.00,0.0072
3838.00,0.0071
3837.00,0.0071
3836.00,0.0071
3835.00,0.0071
3834.00,0.0071
3833.00,0.0071
3832.00,0.0071
3831.00,0.0071
3830.00,0.0072
3829.00,0.0072
3828.00,0.0072
3827.00,0.0073
3826.00,0.0072
3825.00,0.0072
3824.00,0.0073
3823.00,0.0074
3822.00,0.0075
3821.00,0.0074
3820.00,0.0072
3819.00,0.0072
3818.00,0.0072
3817.00,0.0073
3816.00,0.0072
3815.00,0.0071
3814.00,0.0070
3813.00,0.0070
3812.00,0.0071
3811.00,0.0071
3810.00,0.0071
3809.00,0.0071
3808.00,0.0072
3807.00,0.0073
3806.00,0.0072
3805.00,0.0072
3804.00,0.0073
3803.00,0.0073
3802.00,0.0073
3801.00,0.0072
3800.00,0.0071
3799.00,0.0072
3798.00,0.0073
3797.00,0.0074
3796.00,0.0073
3795.00,0.0072
3794.00,0.0072
3793.00,0.0072
3792.00,0.0072
3791.00,0.0071
3790.00,0.0071
3789.00,0.0071
3788.00,0.0072
3787.00,0.0072
3786.00,0.0073
3785.00,0.0073
3784.00,0.0074
3783.00,0.0074
3782.00,0.0075
3781.00,0.0076
3780.00,0.0076
3779.00,0.0075
3778.00,0.0075
3777.00,0.0075
3776.00,0.0075
3775.00,0.0076
3774.00,0.0076
3773.00,0.0076
3772.00,0.0077
3771.00,0.0077
3770.00,0.0077
3769.00,0.0077
3768.00,0.0078
3767.00,0.0079
3766.00,0.0080
3765.00,0.0079
3764.00,0.0079
3763.00,0.0079
3762.00,0.0080
3761.00,0.0082
3760.00,0.0082
3759.00,0.0082
3758.00,0.0082
3757.00,0.0082
3756.00,0.0082
3755.00,0.0083
3754.00,0.0084
3753.00,0.0085
3752.00,0.0085
3751.00,0.0086
3750.00,0.0086
3749.00,0.0087
3748.00,0.0086
3747.00,0.0086
3746.00,0.0086
3745.00,0.0086
3744.00,0.0086
3743.00,0.0086
3742.00,0.0086
3741.00,0.0088
3740.00,0.0090
3739.00,0.0091
3738.00,0.0091
3737.00,0.0092
3736.00,0.0092
3735.00,0.0092
3734.00,0.0092
3733.00,0.0092
3732.00,0.0092
3731.00,0.0091
3730.00,0.0091
3729.00,0.0091
3728.00,0.0092
3727.00,0.0093
3726.00,0.0093
3725.00,0.0093
3724.00,0.0094
3723.00,0.0094
3722.00,0.0094
3721.00,0.0094
3720.00,0.0094
3719.00,0.0094
3718.00,0.0094
3717.00,0.0095
3716.00,0.0096
3715.00,0.0097
3714.00,0.0099
3713.00,0.0100
3712.00,0.0100
3711.00,0.0100
3710.00,0.0101
3709.00,0.0101
3708.00,0.0101
3707.00,0.0102
3706.00,0.0102
3705.00,0.0102
3704.00,0.0103
3703.00,0.0104
3702.00,0.0105
3701.00,0.0106
3700.00,0.0107
3699.00,0.0109
3698.00,0.0110
3697.00,0.0112
3696.00,0.0113
3695.00,0.0114
3694.00,0.0116
3693.00,0.0118
3692.00,0.0120
3691.00,0.0122
3690.00,0.0124
3689.00,0.0126
3688.00,0.0129
3687.00,0.0132
3686.00,0.0134
3685.00,0.0136
3684.00,0.0138
3683.00,0.0141
3682.00,0.0144
3681.00,0.0146
3680.00,0.0148
3679.00,0.0150
3678.00,0.0153
3677.00,0.0156
3676.00,0.0160
3675.00,0.0164
3674.00,0.0168
3673.00,0.0173
3672.00,0.0178
3671.00,0.0183
3670.00,0.0185
3669.00,0.0187
3668.00,0.0190
3667.00,0.0194
3666.00,0.0198
3665.00,0.0202
3664.00,0.0206
3663.00,0.0210
3662.00,0.0214
3661.00,0.0218
3660.00,0.0223
3659.00,0.0227
3658.00,0.0232
3657.00,0.0238
3656.00,0.0244
3655.00,0.0250
3654.00,0.0255
3653.00,0.0261
3652.00,0.0268
3651.00,0.0275
3650.00,0.0282
3649.00,0.0290
3648.00,0.0299
3647.00,0.0307
3646.00,0.0313
3645.00,0.0318
3644.00,0.0323
3643.00,0.0328
3642.00,0.0332
3641.00,0.0337
3640.00,0.0343
3639.00,0.0349
3638.00,0.0355
3637.00,0.0362
3636.00,0.0369
3635.00,0.0376
3634.00,0.0383
3633.00,0.0389
3632.00,0.0395
3631.00,0.0402
3630.00,0.0412
3629.00,0.0422
3628.00,0.0432
3627.00,0.0442
3626.00,0.0449
3625.00,0.0456
3624.00,0.0462
3623.00,0.0467
3622.00,0.0472
3621.00,0.0477
3620.00,0.0484
3619.00,0.0493
3618.00,0.0502
3617.00,0.0512
3616.00,0.0520
3615.00,0.0527
3614.00,0.0534
3613.00,0.0540
3612.00,0.0547
3611.00,0.0555
3610.00,0.0563
3609.00,0.0571
3608.00,0.0578
3607.00,0.0585
3606.00,0.0592
3605.00,0.0599
3604.00,0.0605
3603.00,0.0611
3602.00,0.0617
3601.00,0.0624
3600.00,0.0631
3599.00,0.0638
3598.00,0.0645
3597.00,0.0652
3596.00,0.0660
3595.00,0.0667
3594.00,0.0675
3593.00,0.0683
3592.00,0.0690
3591.00,0.0697
3590.00,0.0703
3589.00,0.0711
3588.00,0.0719
3587.00,0.0727
3586.00,0.0737
3585.00,0.0745
3584.00,0.0753
3583.00,0.0759
3582.00,0.0765
3581.00,0.0771
3580.00,0.0777
3579.00,0.0783
3578.00,0.0790
3577.00,0.0797
3576.00,0.0804
3575.00,0.0811
3574.00,0.0819
3573.00,0.0826
3572.00,0.0833
3571.00,0.0839
3570.00,0.0846
3569.00,0.0853
3568.00,0.0861
3567.00,0.0870
3566.00,0.0880
3565.00,0.0890
3564.00,0.0898
3563.00,0.0906
3562.00,0.0912
3561.00,0.0918
3560.00,0.0924
3559.00,0.0930
3558.00,0.0937
3557.00,0.0943
3556.00,0.0950
3555.00,0.0957
3554.00,0.0964
3553.00,0.0971
3552.00,0.0979
3551.00,0.0986
3550.00,0.0994
3549.00,0.1002
3548.00,0.1009
3547.00,0.1017
3546.00,0.1025
3545.00,0.1032
3544.00,0.1040
3543.00,0.1046
3542.00,0.1053
3541.00,0.1060
3540.00,0.1066
3539.00,0.1073
3538.00,0.1080
3537.00,0.1087
3536.00,0.1093
3535.00,0.1100
3534.00,0.1108
3533.00,0.1115
3532.00,0.1122
3531.00,0.1128
3530.00,0.1135
3529.00,0.1142
3528.00,0.1150
3527.00,0.1158
3526.00,0.1167
3525.00,0.1175
3524.00,0.1183
3523.00,0.1190
3522.00,0.1196
3521.00,0.1203
3520.00,0.1209
3519.00,0.1215
3518.00,0.1222
3517.00,0.1228
3516.00,0.1235
3515.00,0.1243
3514.00,0.1249
3513.00,0.1256
3512.00,0.1263
3511.00,0.1270
3510.00,0.1278
3509.00,0.1286
3508.00,0.1295
3507.00,0.1303
3506.00,0.1310
3505.00,0.1318
3504.00,0.1324
3503.00,0.1332
3502.00,0.1340
3501.00,0.1348
3500.00,0.1355
3499.00,0.1362
3498.00,0.1368
3497.00,0.1375
3496.00,0.1381
3495.00,0.1387
3494.00,0.1394
3493.00,0.1401
3492.00,0.1408
3491.00,0.1414
3490.00,0.1421
3489.00,0.1428
3488.00,0.1436
3487.00,0.1443
3486.00,0.1449
3485.00,0.1456
3484.00,0.1463
3483.00,0.1470
3482.00,0.1478
3481.00,0.1485
3480.00,0.1492
3479.00,0.1498
3478.00,0.1504
3477.00,0.1511
3476.00,0.1517
3475.00,0.1524
3474.00,0.1531
3473.00,0.1538
3472.00,0.1545
3471.00,0.1552
3470.00,0.1559
3469.00,0.1565
3468.00,0.1571
3467.00,0.1577
3466.00,0.1583
3465.00,0.1589
3464.00,0.1595
3463.00,0.1601
3462.00,0.1607
3461.00,0.1614
3460.00,0.1620
3459.00,0.1625
3458.00,0.1631
3457.00,0.1636
3456.00,0.1641
3455.00,0.1647
3454.00,0.1652
3453.00,0.1657
3452.00,0.1663
3451.00,0.1669
3450.00,0.1675
3449.00,0.1681
3448.00,0.1687
3447.00,0.1693
3446.00,0.1699
3445.00,0.1705
3444.00,0.1711
3443.00,0.1716
3442.00,0.1722
3441.00,0.1727
3440.00,0.1733
3439.00,0.1739
3438.00,0.1745
3437.00,0.1750
3436.00,0.1755
3435.00,0.1759
3434.00,0.1764
3433.00,0.1768
3432.00,0.1774
3431.00,0.1779
3430.00,0.1784
3429.00,0.1788
3428.00,0.1792
3427.00,0.1796
3426.00,0.1800
3425.00,0.1804
3424.00,0.1808
3423.00,0.1813
3422.00,0.1817
3421.00,0.1822
3420.00,0.1827
3419.00,0.1831
3418.00,0.1836
3417.00,0.1840
3416.00,0.1845
3415.00,0.1850
3414.00,0.1854
3413.00,0.1858
3412.00,0.1861
3411.00,0.1864
3410.00,0.1867
3409.00,0.1870
3408.00,0.1873
3407.00,0.1876
3406.00,0.1879
3405.00,0.1883
3404.00,0.1887
3403.00,0.1892
3402.00,0.1895
3401.00,0.1898
3400.00,0.1900
3399.00,0.1901
3398.00,0.1903
3397.00,0.1904
3396.00,0.1907
3395.00,0.1910
3394.00,0.1912
3393.00,0.1915
3392.00,0.1917
3391.00,0.1918
3390.00,0.1919
3389.00,0.1920
3388.00,0.1921
3387.00,0.1922
3386.00,0.1924
3385.00,0.1925
3384.00,0.1926
3383.00,0.1928
3382.00,0.1929
3381.00,0.1931
3380.00,0.1932
3379.00,0.1933
3378.00,0.1934
3377.00,0.1935
3376.00,0.1936
3375.00,0.1937
3374.00,0.1937
3373.00,0.1938
3372.00,0.1939
3371.00,0.1940
3370.00,0.1940
3369.00,0.1940
3368.00,0.1939
3367.00,0.1938
3366.00,0.1937
3365.00,0.1935
3364.00,0.1935
3363.00,0.1934
3362.00,0.1934
3361.00,0.1934
3360.00,0.1933
3359.00,0.1931
3358.00,0.1930
3357.00,0.1929
3356.00,0.1928
3355.00,0.1927
3354.00,0.1926
3353.00,0.1926
3352.00,0.1925
3351.00,0.1924
3350.00,0.1923
3349.00,0.1921
3348.00,0.1919
3347.00,0.1916
3346.00,0.1914
3345.00,0.1912
3344.00,0.1910
3343.00,0.1907
3342.00,0.1905
3341.00,0.1904
3340.00,0.1902
3339.00,0.1901
3338.00,0.1898
3337.00,0.1895
3336.00,0.1892
3335.00,0.1888
3334.00,0.1885
3333.00,0.1882
3332.00,0.1878
3331.00,0.1875
3330.00,0.1872
3329.00,0.1869
3328.00,0.1866
3327.00,0.1863
3326.00,0.1860
3325.00,0.1857
3324.00,0.1853
3323.00,0.1849
3322.00,0.1846
3321.00,0.1842
3320.00,0.1839
3319.00,0.1835
3318.00,0.1831
3317.00,0.1827
3316.00,0.1824
3315.00,0.1821
3314.00,0.1818
3313.00,0.1815
3312.00,0.1812
3311.00,0.1810
3310.00,0.1807
3309.00,0.1804
3308.00,0.1802
3307.00,0.1799
3306.00,0.1796
3305.00,0.1793
3304.00,0.1790
3303.00,0.1786
3302.00,0.1783
3301.00,0.1779
3300.00,0.1776
3299.00,0.1773
3298.00,0.1770
3297.00,0.1767
3296.00,0.1765
3295.00,0.1762
3294.00,0.1759
3293.00,0.1756
3292.00,0.1753
3291.00,0.1749
3290.00,0.1746
3289.00,0.1743
3288.00,0.1740
3287.00,0.1737
3286.00,0.1734
3285.00,0.1731
3284.00,0.1728
3283.00,0.1725
3282.00,0.1721
3281.00,0.1718
3280.00,0.1715
3279.00,0.1712
3278.00,0.1709
3277.00,0.1706
3276.00,0.1703
3275.00,0.1699
3274.00,0.1696
3273.00,0.1693
3272.00,0.1689
3271.00,0.1685
3270.00,0.1681
3269.00,0.1678
3268.00,0.1674
3267.00,0.1670
3266.00,0.1666
3265.00,0.1663
3264.00,0.1659
3263.00,0.1656
3262.00,0.1652
3261.00,0.1648
3260.00,0.1644
3259.00,0.1640
3258.00,0.1635
3257.00,0.1631
3256.00,0.1627
3255.00,0.1623
3254.00,0.1619
3253.00,0.1615
3252.00,0.1611
3251.00,0.1607
3250.00,0.1603
3249.00,0.1599
3248.00,0.1595
3247.00,0.1590
3246.00,0.1585
3245.00,0.1580
3244.00,0.1576
3243.00,0.1572
3242.00,0.1567
3241.00,0.1563
3240.00,0.1558
3239.00,0.1554
3238.00,0.1550
3237.00,0.1546
3236.00,0.1542
3235.00,0.1537
3234.00,0.1533
3233.00,0.1528
3232.00,0.1523
3231.00,0.1518
3230.00,0.1513
3229.00,0.1508
3228.00,0.1503
3227.00,0.1498
3226.00,0.1493
3225.00,0.1488
3224.00,0.1483
3223.00,0.1477
3222.00,0.1472
3221.00,0.1467
3220.00,0.1461
3219.00,0.1456
3218.00,0.1451
3217.00,0.1445
3216.00,0.1440
3215.00,0.1434
3214.00,0.1429
3213.00,0.1424
3212.00,0.1419
3211.00,0.1414
3210.00,0.1408
3209.00,0.1402
3208.00,0.1395
3207.00,0.1389
3206.00,0.1384
3205.00,0.1378
3204.00,0.1373
3203.00,0.1367
3202.00,0.1362
3201.00,0.1356
3200.00,0.1350
3199.00,0.1344
3198.00,0.1338
3197.00,0.1332
3196.00,0.1326
3195.00,0.1320
3194.00,0.1314
3193.00,0.1308
3192.00,0.1302
3191.00,0.1296
3190.00,0.1290
3189.00,0.1284
3188.00,0.1277
3187.00,0.1271
3186.00,0.1265
3185.00,0.1259
3184.00,0.1253
3183.00,0.1247
3182.00,0.1241
3181.00,0.1235
3180.00,0.1230
3179.00,0.1224
3178.00,0.1218
3177.00,0.1212
3176.00,0.1206
3175.00,0.1201
3174.00,0.1195
3173.00,0.1189
3172.00,0.1183
3171.00,0.1176
3170.00,0.1170
3169.00,0.1164
3168.00,0.1158
3167.00,0.1152
3166.00,0.1145
3165.00,0.1139
3164.00,0.1133
3163.00,0.1127
3162.00,0.1122
3161.00,0.1117
3160.00,0.1111
3159.00,0.1105
3158.00,0.1100
3157.00,0.1094
3156.00,0.1089
3155.00,0.1083
3154.00,0.1078
3153.00,0.1072
3152.00,0.1067
3151.00,0.1061
3150.00,0.1055
3149.00,0.1049
3148.00,0.1043
3147.00,0.1037
3146.00,0.1032
3145.00,0.1027
3144.00,0.1021
3143.00,0.1016
3142.00,0.1011
3141.00,0.1006
3140.00,0.1001
3139.00,0.0996
3138.00,0.0991
3137.00,0.0985
3136.00,0.0980
3135.00,0.0974
3134.00,0.0969
3133.00,0.0963
3132.00,0.0958
3131.00,0.0954
3130.00,0.0949
3129.00,0.0943
3128.00,0.0938
3127.00,0.0933
3126.00,0.0928
3125.00,0.0923
3124.00,0.0918
3123.00,0.0914
3122.00,0.0909
3121.00,0.0905
3120.00,0.0900
3119.00,0.0895
3118.00,0.0890
3117.00,0.0885
3116.00,0.0880
3115.00,0.0875
3114.00,0.0871
3113.00,0.0866
3112.00,0.0862
3111.00,0.0858
3110.00,0.0853
3109.00,0.0848
3108.00,0.0844
3107.00,0.0839
3106.00,0.0835
3105.00,0.0831
3104.00,0.0827
3103.00,0.0822
3102.00,0.0818
3101.00,0.0814
3100.00,0.0810
3099.00,0.0805
3098.00,0.0801
3097.00,0.0796
3096.00,0.0792
3095.00,0.0788
3094.00,0.0784
3093.00,0.0780
3092.00,0.0776
3091.00,0.0772
3090.00,0.0768
3089.00,0.0764
3088.00,0.0761
3087.00,0.0757
3086.00,0.0753
3085.00,0.0749
3084.00,0.0745
3083.00,0.0740
3082.00,0.0736
3081.00,0.0732
3080.00,0.0728
3079.00,0.0725
3078.00,0.0721
3077.00,0.0718
3076.00,0.0714
3075.00,0.0710
3074.00,0.0706
3073.00,0.0702
3072.00,0.0699
3071.00,0.0695
3070.00,0.0691
3069.00,0.0688
3068.00,0.0684
3067.00,0.0680
3066.00,0.0677
3065.00,0.0674
3064.00,0.0670
3063.00,0.0667
3062.00,0.0664
3061.00,0.0660
3060.00,0.0657
3059.00,0.0654
3058.00,0.0650
3057.00,0.0647
3056.00,0.0643
3055.00,0.0639
3054.00,0.0635
3053.00,0.0632
3052.00,0.0628
3051.00,0.0625
3050.00,0.0622
3049.00,0.0619
3048.00,0.0616
3047.00,0.0613
3046.00,0.0609
3045.00,0.0606
3044.00,0.0603
3043.00,0.0600
3042.00,0.0596
3041.00,0.0593
3040.00,0.0590
3039.00,0.0587
3038.00,0.0584
3037.00,0.0581
3036.00,0.0578
3035.00,0.0575
3034.00,0.0572
3033.00,0.0569
3032.00,0.0567
3031.00,0.0564
3030.00,0.0561
3029.00,0.0559
3028.00,0.0556
3027.00,0.0552
3026.00,0.0549
3025.00,0.0546
3024.00,0.0544
3023.00,0.0541
3022.00,0.0539
3021.00,0.0536
3020.00,0.0534
3019.00,0.0531
3018.00,0.0529
3017.00,0.0527
3016.00,0.0525
3015.00,0.0522
3014.00,0.0520
3013.00,0.0518
3012.00,0.0516
3011.00,0.0513
3010.00,0.0511
3009.00,0.0509
3008.00,0.0507
3007.00,0.0505
3006.00,0.0502
3005.00,0.0500
3004.00,0.0498
3003.00,0.0495
3002.00,0.0493
3001.00,0.0491
3000.00,0.0490
2999.00,0.0488
2998.00,0.0486
2997.00,0.0484
2996.00,0.0483
2995.00,0.0481
2994.00,0.0480
2993.00,0.0479
2992.00,0.0477
2991.00,0.0476
2990.00,0.0475
2989.00,0.0474
2988.00,0.0473
2987.00,0.0472
2986.00,0.0471
2985.00,0.0471
2984.00,0.0471
2983.00,0.0471
2982.00,0.0470
2981.00,0.0470
2980.00,0.0469
2979.00,0.0469
2978.00,0.0469
2977.00,0.0469
2976.00,0.0470
2975.00,0.0470
2974.00,0.0471
2973.00,0.0472
2972.00,0.0473
2971.00,0.0474
2970.00,0.0476
2969.00,0.0477
2968.00,0.0479
2967.00,0.0481
2966.00,0.0482
2965.00,0.0483
2964.00,0.0485
2963.00,0.0486
2962.00,0.0488
2961.00,0.0489
2960.00,0.0490
2959.00,0.0491
2958.00,0.0491
2957.00,0.0492
2956.00,0.0492
2955.00,0.0492
2954.00,0.0491
2953.00,0.0491
2952.00,0.0490
2951.00,0.0489
2950.00,0.0488
2949.00,0.0488
2948.00,0.0487
2947.00,0.0488
2946.00,0.0489
2945.00,0.0490
2944.00,0.0491
2943.00,0.0493
2942.00,0.0496
2941.00,0.0499
2940.00,0.0502
2939.00,0.0505
2938.00,0.0509
2937.00,0.0514
2936.00,0.0519
2935.00,0.0524
2934.00,0.0529
2933.00,0.0534
2932.00,0.0539
2931.00,0.0544
2930.00,0.0549
2929.00,0.0554
2928.00,0.0559
2927.00,0.0564
2926.00,0.0568
2925.00,0.0571
2924.00,0.0574
2923.00,0.0575
2922.00,0.0576
2921.00,0.0576
2920.00,0.0575
2919.00,0.0571
2918.00,0.0566
2917.00,0.0559
2916.00,0.0551
2915.00,0.0541
2914.00,0.0531
2913.00,0.0521
2912.00,0.0511
2911.00,0.0503
2910.00,0.0495
2909.00,0.0488
2908.00,0.0481
2907.00,0.0476
2906.00,0.0471
2905.00,0.0466
2904.00,0.0462
2903.00,0.0458
2902.00,0.0454
2901.00,0.0450
2900.00,0.0447
2899.00,0.0443
2898.00,0.0440
2897.00,0.0436
2896.00,0.0433
2895.00,0.0429
2894.00,0.0425
2893.00,0.0422
2892.00,0.0419
2891.00,0.0415
2890.00,0.0412
2889.00,0.0409
2888.00,0.0405
2887.00,0.0402
2886.00,0.0398
2885.00,0.0395
2884.00,0.0392
2883.00,0.0390
2882.00,0.0388
2881.00,0.0385
2880.00,0.0383
2879.00,0.0381
2878.00,0.0380
2877.00,0.0379
2876.00,0.0378
2875.00,0.0378
2874.00,0.0377
2873.00,0.0376
2872.00,0.0375
2871.00,0.0373
2870.00,0.0372
2869.00,0.0370
2868.00,0.0369
2867.00,0.0368
2866.00,0.0368
2865.00,0.0367
2864.00,0.0368
2863.00,0.0369
2862.00,0.0370
2861.00,0.0373
2860.00,0.0376
2859.00,0.0380
2858.00,0.0384
2857.00,0.0388
2856.00,0.0393
2855.00,0.0396
2854.00,0.0400
2853.00,0.0402
2852.00,0.0402
2851.00,0.0400
2850.00,0.0396
2849.00,0.0388
2848.00,0.0379
2847.00,0.0368
2846.00,0.0357
2845.00,0.0347
2844.00,0.0337
2843.00,0.0328
2842.00,0.0320
2841.00,0.0314
2840.00,0.0308
2839.00,0.0303
2838.00,0.0299
2837.00,0.0295
2836.00,0.0291
2835.00,0.0288
2834.00,0.0285
2833.00,0.0282
2832.00,0.0279
2831.00,0.0277
2830.00,0.0275
2829.00,0.0272
2828.00,0.0270
2827.00,0.0268
2826.00,0.0266
2825.00,0.0265
2824.00,0.0263
2823.00,0.0262
2822.00,0.0260
2821.00,0.0258
2820.00,0.0256
2819.00,0.0255
2818.00,0.0253
2817.00,0.0252
2816.00,0.0250
2815.00,0.0249
2814.00,0.0247
2813.00,0.0246
2812.00,0.0245
2811.00,0.0243
2810.00,0.0242
2809.00,0.0241
2808.00,0.0240
2807.00,0.0239
2806.00,0.0238
2805.00,0.0236
2804.00,0.0235
2803.00,0.0234
2802.00,0.0232
2801.00,0.0231
2800.00,0.0230
2799.00,0.0230
2798.00,0.0229
2797.00,0.0228
2796.00,0.0227
2795.00,0.0226
2794.00,0.0225
2793.00,0.0224
2792.00,0.0223
2791.00,0.0222
2790.00,0.0221
2789.00,0.0220
2788.00,0.0219
2787.00,0.0218
2786.00,0.0217
2785.00,0.0216
2784.00,0.0215
2783.00,0.0214
2782.00,0.0213
2781.00,0.0212
2780.00,0.0211
2779.00,0.0211
2778.00,0.0210
2777.00,0.0209
2776.00,0.0208
2775.00,0.0207
2774.00,0.0207
2773.00,0.0206
2772.00,0.0205
2771.00,0.0205
2770.00,0.0204
2769.00,0.0203
2768.00,0.0203
2767.00,0.0202
2766.00,0.0201
2765.00,0.0201
2764.00,0.0200
2763.00,0.0199
2762.00,0.0199
2761.00,0.0198
2760.00,0.0197
2759.00,0.0197
2758.00,0.0196
2757.00,0.0195
2756.00,0.0195
2755.00,0.0194
2754.00,0.0194
2753.00,0.0193
2752.00,0.0193
2751.00,0.0192
2750.00,0.0191
2749.00,0.0191
2748.00,0.0190
2747.00,0.0190
2746.00,0.0189
2745.00,0.0189
2744.00,0.0188
2743.00,0.0187
2742.00,0.0187
2741.00,0.0186
2740.00,0.0186
2739.00,0.0186
2738.00,0.0185
2737.00,0.0185
2736.00,0.0184
2735.00,0.0183
2734.00,0.0182
2733.00,0.0182
2732.00,0.0181
2731.00,0.0181
2730.00,0.0180
2729.00,0.0180
2728.00,0.0179
2727.00,0.0179
2726.00,0.0179
2725.00,0.0178
2724.00,0.0178
2723.00,0.0177
2722.00,0.0176
2721.00,0.0175
2720.00,0.0175
2719.00,0.0174
2718.00,0.0174
2717.00,0.0174
2716.00,0.0173
2715.00,0.0173
2714.00,0.0172
2713.00,0.0171
2712.00,0.0171
2711.00,0.0170
2710.00,0.0170
2709.00,0.0170
2708.00,0.0169
2707.00,0.0169
2706.00,0.0168
2705.00,0.0167
2704.00,0.0166
2703.00,0.0166
2702.00,0.0165
2701.00,0.0165
2700.00,0.0164
2699.00,0.0164
2698.00,0.0164
2697.00,0.0163
2696.00,0.0163
2695.00,0.0162
2694.00,0.0162
2693.00,0.0161
2692.00,0.0161
2691.00,0.0161
2690.00,0.0161
2689.00,0.0160
2688.00,0.0160
2687.00,0.0159
2686.00,0.0158
2685.00,0.0158
2684.00,0.0157
2683.00,0.0157
2682.00,0.0157
2681.00,0.0157
2680.00,0.0156
2679.00,0.0156
2678.00,0.0155
2677.00,0.0155
2676.00,0.0155
2675.00,0.0154
2674.00,0.0154
2673.00,0.0154
2672.00,0.0154
2671.00,0.0153
2670.00,0.0153
2669.00,0.0153
2668.00,0.0152
2667.00,0.0152
2666.00,0.0152
2665.00,0.0152
2664.00,0.0153
2663.00,0.0153
2662.00,0.0154
2661.00,0.0154
2660.00,0.0154
2659.00,0.0154
2658.00,0.0154
2657.00,0.0154
2656.00,0.0154
2655.00,0.0154
2654.00,0.0154
2653.00,0.0154
2652.00,0.0153
2651.00,0.0152
2650.00,0.0152
2649.00,0.0151
2648.00,0.0150
2647.00,0.0150
2646.00,0.0149
2645.00,0.0149
2644.00,0.0149
2643.00,0.0149
2642.00,0.0148
2641.00,0.0148
2640.00,0.0147
2639.00,0.0147
2638.00,0.0146
2637.00,0.0145
2636.00,0.0145
2635.00,0.0144
2634.00,0.0144
2633.00,0.0143
2632.00,0.0143
2631.00,0.0142
2630.00,0.0142
2629.00,0.0141
2628.00,0.0141
2627.00,0.0140
2626.00,0.0139
2625.00,0.0138
2624.00,0.0138
2623.00,0.0138
2622.00,0.0137
2621.00,0.0137
2620.00,0.0137
2619.00,0.0137
2618.00,0.0136
2617.00,0.0136
2616.00,0.0135
2615.00,0.0134
2614.00,0.0133
2613.00,0.0133
2612.00,0.0132
2611.00,0.0132
2610.00,0.0132
2609.00,0.0132
2608.00,0.0132
2607.00,0.0131
2606.00,0.0131
2605.00,0.0130
2604.00,0.0129
2603.00,0.0129
2602.00,0.0128
2601.00,0.0128
2600.00,0.0127
2599.00,0.0127
2598.00,0.0128
2597.00,0.0128
2596.00,0.0128
2595.00,0.0127
2594.00,0.0126
2593.00,0.0125
2592.00,0.0125
2591.00,0.0125
2590.00,0.0125
2589.00,0.0126
2588.00,0.0126
2587.00,0.0125
2586.00,0.0123
2585.00,0.0122
2584.00,0.0122
2583.00,0.0122
2582.00,0.0122
2581.00,0.0121
2580.00,0.0121
2579.00,0.0121
2578.00,0.0120
2577.00,0.0120
2576.00,0.0120
2575.00,0.0120
2574.00,0.0120
2573.00,0.0120
2572.00,0.0119
2571.00,0.0119
2570.00,0.0119
2569.00,0.0118
2568.00,0.0118
2567.00,0.0117
2566.00,0.0117
2565.00,0.0116
2564.00,0.0116
2563.00,0.0116
2562.00,0.0116
2561.00,0.0116
2560.00,0.0116
2559.00,0.0116
2558.00,0.0116
2557.00,0.0115
2556.00,0.0115
2555.00,0.0114
2554.00,0.0114
2553.00,0.0113
2552.00,0.0113
2551.00,0.0113
2550.00,0.0114
2549.00,0.0114
2548.00,0.0114
2547.00,0.0114
2546.00,0.0114
2545.00,0.0114
2544.00,0.0114
2543.00,0.0114
2542.00,0.0114
2541.00,0.0114
2540.00,0.0114
2539.00,0.0114
2538.00,0.0114
2537.00,0.0114
2536.00,0.0113
2535.00,0.0113
2534.00,0.0112
2533.00,0.0111
2532.00,0.0110
2531.00,0.0110
2530.00,0.0111
2529.00,0.0111
2528.00,0.0111
2527.00,0.0111
2526.00,0.0111
2525.00,0.0110
2524.00,0.0111
2523.00,0.0111
2522.00,0.0111
2521.00,0.0110
2520.00,0.0110
2519.00,0.0110
2518.00,0.0110
2517.00,0.0110
2516.00,0.0110
2515.00,0.0110
2514.00,0.0110
2513.00,0.0110
2512.00,0.0110
2511.00,0.0110
2510.00,0.0109
2509.00,0.0109
2508.00,0.0109
2507.00,0.0109
2506.00,0.0109
2505.00,0.0109
2504.00,0.0109
2503.00,0.0109
2502.00,0.0109
2501.00,0.0109
2500.00,0.0109
2499.00,0.0109
2498.00,0.0108
2497.00,0.0108
2496.00,0.0108
2495.00,0.0107
2494.00,0.0108
2493.00,0.0108
2492.00,0.0108
2491.00,0.0108
2490.00,0.0108
2489.00,0.0107
2488.00,0.0107
2487.00,0.0107
2486.00,0.0107
2485.00,0.0107
2484.00,0.0106
2483.00,0.0106
2482.00,0.0105
2481.00,0.0105
2480.00,0.0105
2479.00,0.0105
2478.00,0.0105
2477.00,0.0105
2476.00,0.0106
2475.00,0.0106
2474.00,0.0107
2473.00,0.0107
2472.00,0.0107
2471.00,0.0107
2470.00,0.0106
2469.00,0.0106
2468.00,0.0105
2467.00,0.0105
2466.00,0.0105
2465.00,0.0105
2464.00,0.0106
2463.00,0.0107
2462.00,0.0107
2461.00,0.0108
2460.00,0.0108
2459.00,0.0108
2458.00,0.0108
2457.00,0.0108
2456.00,0.0108
2455.00,0.0109
2454.00,0.0109
2453.00,0.0109
2452.00,0.0109
2451.00,0.0109
2450.00,0.0109
2449.00,0.0109
2448.00,0.0108
2447.00,0.0108
2446.00,0.0107
2445.00,0.0107
2444.00,0.0107
2443.00,0.0107
2442.00,0.0107
2441.00,0.0107
2440.00,0.0107
2439.00,0.0106
2438.00,0.0106
2437.00,0.0105
2436.00,0.0105
2435.00,0.0106
2434.00,0.0106
2433.00,0.0106
2432.00,0.0106
2431.00,0.0106
2430.00,0.0106
2429.00,0.0106
2428.00,0.0105
2427.00,0.0105
2426.00,0.0104
2425.00,0.0104
2424.00,0.0104
2423.00,0.0103
2422.00,0.0103
2421.00,0.0104
2420.00,0.0104
2419.00,0.0105
2418.00,0.0105
2417.00,0.0105
2416.00,0.0105
2415.00,0.0104
2414.00,0.0104
2413.00,0.0103
2412.00,0.0104
2411.00,0.0104
2410.00,0.0104
2409.00,0.0104
2408.00,0.0104
2407.00,0.0104
2406.00,0.0104
2405.00,0.0103
2404.00,0.0103
2403.00,0.0103
2402.00,0.0103
2401.00,0.0103
2400.00,0.0104
2399.00,0.0104
2398.00,0.0104
2397.00,0.0104
2396.00,0.0104
2395.00,0.0103
2394.00,0.0103
2393.00,0.0103
2392.00,0.0104
2391.00,0.0104
2390.00,0.0105
2389.00,0.0105
2388.00,0.0105
2387.00,0.0105
2386.00,0.0105
2385.00,0.0104
2384.00,0.0104
2383.00,0.0103
2382.00,0.0101
2381.00,0.0100
2380.00,0.0098
2379.00,0.0098
2378.00,0.0098
2377.00,0.0098
2376.00,0.0099
2375.00,0.0100
2374.00,0.0101
2373.00,0.0102
2372.00,0.0103
2371.00,0.0104
2370.00,0.0104
2369.00,0.0103
2368.00,0.0103
2367.00,0.0103
2366.00,0.0104
2365.00,0.0104
2364.00,0.0105
2363.00,0.0105
2362.00,0.0106
2361.00,0.0106
2360.00,0.0107
2359.00,0.0107
2358.00,0.0108
2357.00,0.0109
2356.00,0.0110
2355.00,0.0110
2354.00,0.0110
2353.00,0.0110
2352.00,0.0109
2351.00,0.0109
2350.00,0.0110
2349.00,0.0111
2348.00,0.0113
2347.00,0.0115
2346.00,0.0116
2345.00,0.0116
2344.00,0.0116
2343.00,0.0116
2342.00,0.0117
2341.00,0.0118
2340.00,0.0118
2339.00,0.0119
2338.00,0.0119
2337.00,0.0120
2336.00,0.0121
2335.00,0.0121
2334.00,0.0122
2333.00,0.0122
2332.00,0.0122
2331.00,0.0121
2330.00,0.0120
2329.00,0.0120
2328.00,0.0122
2327.00,0.0127
2326.00,0.0134
2325.00,0.0140
2324.00,0.0143
2323.00,0.0142
2322.00,0.0140
2321.00,0.0137
2320.00,0.0135
2319.00,0.0134
2318.00,0.0133
2317.00,0.0131
2316.00,0.0130
2315.00,0.0128
2314.00,0.0127
2313.00,0.0126
2312.00,0.0126
2311.00,0.0125
2310.00,0.0125
2309.00,0.0125
2308.00,0.0126
2307.00,0.0126
2306.00,0.0127
2305.00,0.0127
2304.00,0.0128
2303.00,0.0129
2302.00,0.0130
2301.00,0.0130
2300.00,0.0131
2299.00,0.0131
2298.00,0.0131
2297.00,0.0132
2296.00,0.0133
2295.00,0.0134
2294.00,0.0135
2293.00,0.0137
2292.00,0.0139
2291.00,0.0140
2290.00,0.0142
2289.00,0.0143
2288.00,0.0144
2287.00,0.0145
2286.00,0.0145
2285.00,0.0145
2284.00,0.0144
2283.00,0.0143
2282.00,0.0142
2281.00,0.0141
2280.00,0.0139
2279.00,0.0138
2278.00,0.0137
2277.00,0.0136
2276.00,0.0136
2275.00,0.0135
2274.00,0.0135
2273.00,0.0135
2272.00,0.0135
2271.00,0.0136
2270.00,0.0137
2269.00,0.0137
2268.00,0.0137
2267.00,0.0136
2266.00,0.0134
2265.00,0.0133
2264.00,0.0133
2263.00,0.0133
2262.00,0.0133
2261.00,0.0133
2260.00,0.0133
2259.00,0.0133
2258.00,0.0134
2257.00,0.0133
2256.00,0.0132
2255.00,0.0129
2254.00,0.0127
2253.00,0.0125
2252.00,0.0125
2251.00,0.0125
2250.00,0.0126
2249.00,0.0128
2248.00,0.0129
2247.00,0.0129
2246.00,0.0127
2245.00,0.0126
2244.00,0.0126
2243.00,0.0127
2242.00,0.0128
2241.00,0.0130
2240.00,0.0130
2239.00,0.0129
2238.00,0.0129
2237.00,0.0129
2236.00,0.0130
2235.00,0.0132
2234.00,0.0132
2233.00,0.0132
2232.00,0.0130
2231.00,0.0129
2230.00,0.0128
2229.00,0.0127
2228.00,0.0127
2227.00,0.0127
2226.00,0.0127
2225.00,0.0127
2224.00,0.0127
2223.00,0.0128
2222.00,0.0128
2221.00,0.0128
2220.00,0.0128
2219.00,0.0128
2218.00,0.0126
2217.00,0.0124
2216.00,0.0122
2215.00,0.0122
2214.00,0.0123
2213.00,0.0125
2212.00,0.0127
2211.00,0.0127
2210.00,0.0127
2209.00,0.0126
2208.00,0.0126
2207.00,0.0125
2206.00,0.0124
2205.00,0.0123
2204.00,0.0123
2203.00,0.0123
2202.00,0.0123
2201.00,0.0123
2200.00,0.0124
2199.00,0.0125
2198.00,0.0126
2197.00,0.0127
2196.00,0.0128
2195.00,0.0128
2194.00,0.0129
2193.00,0.0129
2192.00,0.0130
2191.00,0.0130
2190.00,0.0131
2189.00,0.0131
2188.00,0.0131
2187.00,0.0130
2186.00,0.0130
2185.00,0.0132
2184.00,0.0133
2183.00,0.0133
2182.00,0.0131
2181.00,0.0126
2180.00,0.0122
2179.00,0.0121
2178.00,0.0121
2177.00,0.0123
2176.00,0.0124
2175.00,0.0123
2174.00,0.0123
2173.00,0.0124
2172.00,0.0126
2171.00,0.0128
2170.00,0.0130
2169.00,0.0135
2168.00,0.0140
2167.00,0.0146
2166.00,0.0149
2165.00,0.0149
2164.00,0.0148
2163.00,0.0146
2162.00,0.0142
2161.00,0.0135
2160.00,0.0120
2159.00,0.0099
2158.00,0.0079
2157.00,0.0067
2156.00,0.0064
2155.00,0.0068
2154.00,0.0075
2153.00,0.0082
2152.00,0.0088
2151.00,0.0093
2150.00,0.0096
2149.00,0.0098
2148.00,0.0098
2147.00,0.0098
2146.00,0.0097
2145.00,0.0097
2144.00,0.0098
2143.00,0.0100
2142.00,0.0102
2141.00,0.0105
2140.00,0.0107
2139.00,0.0107
2138.00,0.0107
2137.00,0.0107
2136.00,0.0106
2135.00,0.0104
2134.00,0.0103
2133.00,0.0102
2132.00,0.0104
2131.00,0.0108
2130.00,0.0113
2129.00,0.0118
2128.00,0.0123
2127.00,0.0126
2126.00,0.0128
2125.00,0.0129
2124.00,0.0131
2123.00,0.0133
2122.00,0.0135
2121.00,0.0137
2120.00,0.0139
2119.00,0.0140
2118.00,0.0141
2117.00,0.0142
2116.00,0.0145
2115.00,0.0147
2114.00,0.0148
2113.00,0.0148
2112.00,0.0147
2111.00,0.0146
2110.00,0.0146
2109.00,0.0146
2108.00,0.0146
2107.00,0.0147
2106.00,0.0147
2105.00,0.0147
2104.00,0.0148
2103.00,0.0149
2102.00,0.0149
2101.00,0.0149
2100.00,0.0148
2099.00,0.0148
2098.00,0.0146
2097.00,0.0143
2096.00,0.0139
2095.00,0.0135
2094.00,0.0133
2093.00,0.0133
2092.00,0.0134
2091.00,0.0136
2090.00,0.0137
2089.00,0.0138
2088.00,0.0140
2087.00,0.0141
2086.00,0.0142
2085.00,0.0142
2084.00,0.0143
2083.00,0.0144
2082.00,0.0144
2081.00,0.0145
2080.00,0.0145
2079.00,0.0145
2078.00,0.0144
2077.00,0.0144
2076.00,0.0143
2075.00,0.0142
2074.00,0.0141
2073.00,0.0140
2072.00,0.0140
2071.00,0.0139
2070.00,0.0137
2069.00,0.0134
2068.00,0.0132
2067.00,0.0130
2066.00,0.0128
2065.00,0.0126
2064.00,0.0126
2063.00,0.0125
2062.00,0.0125
2061.00,0.0126
2060.00,0.0127
2059.00,0.0129
2058.00,0.0130
2057.00,0.0131
2056.00,0.0130
2055.00,0.0127
2054.00,0.0126
2053.00,0.0129
2052.00,0.0134
2051.00,0.0138
2050.00,0.0138
2049.00,0.0135
2048.00,0.0130
2047.00,0.0125
2046.00,0.0121
2045.00,0.0118
2044.00,0.0115
2043.00,0.0113
2042.00,0.0109
2041.00,0.0106
2040.00,0.0106
2039.00,0.0108
2038.00,0.0110
2037.00,0.0111
2036.00,0.0110
2035.00,0.0107
2034.00,0.0101
2033.00,0.0097
2032.00,0.0093
2031.00,0.0091
2030.00,0.0089
2029.00,0.0089
2028.00,0.0090
2027.00,0.0091
2026.00,0.0090
2025.00,0.0089
2024.00,0.0089
2023.00,0.0089
2022.00,0.0088
2021.00,0.0087
2020.00,0.0087
2019.00,0.0086
2018.00,0.0086
2017.00,0.0088
2016.00,0.0089
2015.00,0.0088
2014.00,0.0087
2013.00,0.0087
2012.00,0.0088
2011.00,0.0090
2010.00,0.0090
2009.00,0.0089
2008.00,0.0086
2007.00,0.0080
2006.00,0.0075
2005.00,0.0074
2004.00,0.0077
2003.00,0.0080
2002.00,0.0082
2001.00,0.0084
2000.00,0.0087
1999.00,0.0090
1998.00,0.0094
1997.00,0.0097
1996.00,0.0099
1995.00,0.0098
1994.00,0.0097
1993.00,0.0096
1992.00,0.0097
1991.00,0.0099
1990.00,0.0101
1989.00,0.0104
1988.00,0.0107
1987.00,0.0109
1986.00,0.0111
1985.00,0.0111
1984.00,0.0113
1983.00,0.0114
1982.00,0.0117
1981.00,0.0119
1980.00,0.0120
1979.00,0.0116
1978.00,0.0106
1977.00,0.0094
1976.00,0.0086
1975.00,0.0080
1974.00,0.0077
1973.00,0.0076
1972.00,0.0078
1971.00,0.0079
1970.00,0.0080
1969.00,0.0080
1968.00,0.0081
1967.00,0.0082
1966.00,0.0081
1965.00,0.0082
1964.00,0.0082
1963.00,0.0082
1962.00,0.0080
1961.00,0.0079
1960.00,0.0079
1959.00,0.0080
1958.00,0.0081
1957.00,0.0083
1956.00,0.0086
1955.00,0.0089
1954.00,0.0090
1953.00,0.0090
1952.00,0.0091
1951.00,0.0092
1950.00,0.0092
1949.00,0.0092
1948.00,0.0093
1947.00,0.0094
1946.00,0.0094
1945.00,0.0093
1944.00,0.0092
1943.00,0.0091
1942.00,0.0090
1941.00,0.0092
1940.00,0.0095
1939.00,0.0097
1938.00,0.0098
1937.00,0.0097
1936.00,0.0095
1935.00,0.0094
1934.00,0.0093
1933.00,0.0094
1932.00,0.0095
1931.00,0.0096
1930.00,0.0096
1929.00,0.0096
1928.00,0.0096
1927.00,0.0096
1926.00,0.0095
1925.00,0.0096
1924.00,0.0098
1923.00,0.0099
1922.00,0.0100
1921.00,0.0100
1920.00,0.0100
1919.00,0.0101
1918.00,0.0100
1917.00,0.0100
1916.00,0.0099
1915.00,0.0100
1914.00,0.0100
1913.00,0.0100
1912.00,0.0101
1911.00,0.0101
1910.00,0.0101
1909.00,0.0099
1908.00,0.0099
1907.00,0.0098
1906.00,0.0098
1905.00,0.0098
1904.00,0.0099
1903.00,0.0099
1902.00,0.0100
1901.00,0.0100
1900.00,0.0099
1899.00,0.0099
1898.00,0.0099
1897.00,0.0099
1896.00,0.0100
1895.00,0.0101
1894.00,0.0100
1893.00,0.0100
1892.00,0.0101
1891.00,0.0101
1890.00,0.0101
1889.00,0.0100
1888.00,0.0101
1887.00,0.0101
1886.00,0.0102
1885.00,0.0102
1884.00,0.0102
1883.00,0.0101
1882.00,0.0100
1881.00,0.0100
1880.00,0.0100
1879.00,0.0100
1878.00,0.0101
1877.00,0.0101
1876.00,0.0102
1875.00,0.0102
1874.00,0.0102
1873.00,0.0102
1872.00,0.0104
1871.00,0.0105
1870.00,0.0106
1869.00,0.0106
1868.00,0.0104
1867.00,0.0103
1866.00,0.0103
1865.00,0.0105
1864.00,0.0105
1863.00,0.0105
1862.00,0.0105
1861.00,0.0104
1860.00,0.0103
1859.00,0.0103
1858.00,0.0103
1857.00,0.0104
1856.00,0.0104
1855.00,0.0105
1854.00,0.0105
1853.00,0.0105
1852.00,0.0105
1851.00,0.0106
1850.00,0.0106
1849.00,0.0106
1848.00,0.0107
1847.00,0.0107
1846.00,0.0108
1845.00,0.0109
1844.00,0.0108
1843.00,0.0107
1842.00,0.0106
1841.00,0.0108
1840.00,0.0110
1839.00,0.0110
1838.00,0.0110
1837.00,0.0110
1836.00,0.0110
1835.00,0.0110
1834.00,0.0110
1833.00,0.0111
1832.00,0.0113
1831.00,0.0114
1830.00,0.0113
1829.00,0.0112
1828.00,0.0112
1827.00,0.0113
1826.00,0.0114
1825.00,0.0114
1824.00,0.0113
1823.00,0.0113
1822.00,0.0114
1821.00,0.0115
1820.00,0.0115
1819.00,0.0114
1818.00,0.0112
1817.00,0.0111
1816.00,0.0112
1815.00,0.0114
1814.00,0.0116
1813.00,0.0119
1812.00,0.0121
1811.00,0.0122
1810.00,0.0122
1809.00,0.0122
1808.00,0.0122
1807.00,0.0123
1806.00,0.0124
1805.00,0.0125
1804.00,0.0126
1803.00,0.0127
1802.00,0.0128
1801.00,0.0129
1800.00,0.0130
1799.00,0.0131
1798.00,0.0132
1797.00,0.0133
1796.00,0.0135
1795.00,0.0137
1794.00,0.0139
1793.00,0.0140
1792.00,0.0139
1791.00,0.0137
1790.00,0.0137
1789.00,0.0138
1788.00,0.0140
1787.00,0.0141
1786.00,0.0142
1785.00,0.0142
1784.00,0.0143
1783.00,0.0144
1782.00,0.0145
1781.00,0.0146
1780.00,0.0146
1779.00,0.0147
1778.00,0.0148
1777.00,0.0149
1776.00,0.0151
1775.00,0.0153
1774.00,0.0154
1773.00,0.0156
1772.00,0.0157
1771.00,0.0156
1770.00,0.0157
1769.00,0.0159
1768.00,0.0161
1767.00,0.0163
1766.00,0.0164
1765.00,0.0166
1764.00,0.0169
1763.00,0.0172
1762.00,0.0173
1761.00,0.0174
1760.00,0.0176
1759.00,0.0180
1758.00,0.0184
1757.00,0.0188
1756.00,0.0191
1755.00,0.0194
1754.00,0.0198
1753.00,0.0203
1752.00,0.0210
1751.00,0.0216
1750.00,0.0221
1749.00,0.0226
1748.00,0.0232
1747.00,0.0237
1746.00,0.0241
1745.00,0.0245
1744.00,0.0250
1743.00,0.0254
1742.00,0.0258
1741.00,0.0262
1740.00,0.0267
1739.00,0.0269
1738.00,0.0269
1737.00,0.0271
1736.00,0.0274
1735.00,0.0277
1734.00,0.0277
1733.00,0.0277
1732.00,0.0281
1731.00,0.0286
1730.00,0.0290
1729.00,0.0293
1728.00,0.0295
1727.00,0.0298
1726.00,0.0301
1725.00,0.0304
1724.00,0.0307
1723.00,0.0311
1722.00,0.0313
1721.00,0.0316
1720.00,0.0319
1719.00,0.0323
1718.00,0.0326
1717.00,0.0329
1716.00,0.0334
1715.00,0.0340
1714.00,0.0345
1713.00,0.0349
1712.00,0.0353
1711.00,0.0357
1710.00,0.0361
1709.00,0.0366
1708.00,0.0372
1707.00,0.0378
1706.00,0.0385
1705.00,0.0390
1704.00,0.0395
1703.00,0.0400
1702.00,0.0408
1701.00,0.0419
1700.00,0.0429
1699.00,0.0436
1698.00,0.0442
1697.00,0.0450
1696.00,0.0462
1695.00,0.0473
1694.00,0.0484
1693.00,0.0495
1692.00,0.0507
1691.00,0.0518
1690.00,0.0530
1689.00,0.0541
1688.00,0.0550
1687.00,0.0559
1686.00,0.0569
1685.00,0.0585
1684.00,0.0605
1683.00,0.0625
1682.00,0.0640
1681.00,0.0654
1680.00,0.0668
1679.00,0.0680
1678.00,0.0693
1677.00,0.0706
1676.00,0.0724
1675.00,0.0743
1674.00,0.0760
1673.00,0.0775
1672.00,0.0789
1671.00,0.0805
1670.00,0.0824
1669.00,0.0844
1668.00,0.0863
1667.00,0.0878
1666.00,0.0891
1665.00,0.0904
1664.00,0.0919
1663.00,0.0938
1662.00,0.0957
1661.00,0.0975
1660.00,0.0990
1659.00,0.1004
1658.00,0.1015
1657.00,0.1023
1656.00,0.1028
1655.00,0.1034
1654.00,0.1048
1653.00,0.1075
1652.00,0.1102
1651.00,0.1118
1650.00,0.1127
1649.00,0.1133
1648.00,0.1141
1647.00,0.1152
1646.00,0.1165
1645.00,0.1174
1644.00,0.1181
1643.00,0.1185
1642.00,0.1187
1641.00,0.1189
1640.00,0.1190
1639.00,0.1191
1638.00,0.1190
1637.00,0.1190
1636.00,0.1192
1635.00,0.1196
1634.00,0.1196
1633.00,0.1193
1632.00,0.1188
1631.00,0.1182
1630.00,0.1173
1629.00,0.1164
1628.00,0.1155
1627.00,0.1146
1626.00,0.1136
1625.00,0.1125
1624.00,0.1113
1623.00,0.1099
1622.00,0.1085
1621.00,0.1070
1620.00,0.1055
1619.00,0.1040
1618.00,0.1022
1617.00,0.1003
1616.00,0.0987
1615.00,0.0972
1614.00,0.0959
1613.00,0.0945
1612.00,0.0930
1611.00,0.0914
1610.00,0.0898
1609.00,0.0881
1608.00,0.0865
1607.00,0.0850
1606.00,0.0835
1605.00,0.0821
1604.00,0.0807
1603.00,0.0793
1602.00,0.0779
1601.00,0.0766
1600.00,0.0753
1599.00,0.0741
1598.00,0.0729
1597.00,0.0717
1596.00,0.0705
1595.00,0.0694
1594.00,0.0683
1593.00,0.0673
1592.00,0.0663
1591.00,0.0653
1590.00,0.0644
1589.00,0.0635
1588.00,0.0628
1587.00,0.0621
1586.00,0.0614
1585.00,0.0609
1584.00,0.0603
1583.00,0.0598
1582.00,0.0594
1581.00,0.0590
1580.00,0.0585
1579.00,0.0580
1578.00,0.0575
1577.00,0.0569
1576.00,0.0564
1575.00,0.0560
1574.00,0.0557
1573.00,0.0555
1572.00,0.0553
1571.00,0.0550
1570.00,0.0546
1569.00,0.0541
1568.00,0.0537
1567.00,0.0535
1566.00,0.0533
1565.00,0.0530
1564.00,0.0525
1563.00,0.0520
1562.00,0.0515
1561.00,0.0511
1560.00,0.0510
1559.00,0.0510
1558.00,0.0510
1557.00,0.0510
1556.00,0.0510
1555.00,0.0510
1554.00,0.0509
1553.00,0.0508
1552.00,0.0507
1551.00,0.0506
1550.00,0.0505
1549.00,0.0504
1548.00,0.0504
1547.00,0.0504
1546.00,0.0504
1545.00,0.0504
1544.00,0.0503
1543.00,0.0503
1542.00,0.0503
1541.00,0.0501
1540.00,0.0496
1539.00,0.0490
1538.00,0.0485
1537.00,0.0484
1536.00,0.0483
1535.00,0.0482
1534.00,0.0478
1533.00,0.0473
1532.00,0.0468
1531.00,0.0465
1530.00,0.0462
1529.00,0.0460
1528.00,0.0457
1527.00,0.0454
1526.00,0.0452
1525.00,0.0451
1524.00,0.0449
1523.00,0.0447
1522.00,0.0444
1521.00,0.0441
1520.00,0.0439
1519.00,0.0438
1518.00,0.0438
1517.00,0.0437
1516.00,0.0434
1515.00,0.0431
1514.00,0.0430
1513.00,0.0429
1512.00,0.0428
1511.00,0.0426
1510.00,0.0423
1509.00,0.0421
1508.00,0.0418
1507.00,0.0416
1506.00,0.0414
1505.00,0.0414
1504.00,0.0414
1503.00,0.0414
1502.00,0.0415
1501.00,0.0415
1500.00,0.0414
1499.00,0.0412
1498.00,0.0411
1497.00,0.0410
1496.00,0.0408
1495.00,0.0408
1494.00,0.0409
1493.00,0.0411
1492.00,0.0414
1491.00,0.0416
1490.00,0.0416
1489.00,0.0416
1488.00,0.0417
1487.00,0.0418
1486.00,0.0419
1485.00,0.0421
1484.00,0.0423
1483.00,0.0425
1482.00,0.0428
1481.00,0.0432
1480.00,0.0435
1479.00,0.0439
1478.00,0.0443
1477.00,0.0448
1476.00,0.0452
1475.00,0.0457
1474.00,0.0465
1473.00,0.0474
1472.00,0.0484
1471.00,0.0492
1470.00,0.0498
1469.00,0.0504
1468.00,0.0509
1467.00,0.0512
1466.00,0.0515
1465.00,0.0518
1464.00,0.0520
1463.00,0.0520
1462.00,0.0521
1461.00,0.0523
1460.00,0.0523
1459.00,0.0523
1458.00,0.0524
1457.00,0.0527
1456.00,0.0529
1455.00,0.0531
1454.00,0.0532
1453.00,0.0532
1452.00,0.0532
1451.00,0.0531
1450.00,0.0530
1449.00,0.0530
1448.00,0.0530
1447.00,0.0530
1446.00,0.0529
1445.00,0.0529
1444.00,0.0530
1443.00,0.0531
1442.00,0.0532
1441.00,0.0533
1440.00,0.0535
1439.00,0.0536
1438.00,0.0538
1437.00,0.0541
1436.00,0.0544
1435.00,0.0547
1434.00,0.0549
1433.00,0.0551
1432.00,0.0554
1431.00,0.0555
1430.00,0.0557
1429.00,0.0558
1428.00,0.0559
1427.00,0.0560
1426.00,0.0561
1425.00,0.0562
1424.00,0.0564
1423.00,0.0564
1422.00,0.0564
1421.00,0.0564
1420.00,0.0564
1419.00,0.0563
1418.00,0.0563
1417.00,0.0564
1416.00,0.0564
1415.00,0.0563
1414.00,0.0562
1413.00,0.0561
1412.00,0.0559
1411.00,0.0557
1410.00,0.0555
1409.00,0.0553
1408.00,0.0551
1407.00,0.0549
1406.00,0.0547
1405.00,0.0545
1404.00,0.0543
1403.00,0.0540
1402.00,0.0538
1401.00,0.0536
1400.00,0.0534
1399.00,0.0531
1398.00,0.0529
1397.00,0.0526
1396.00,0.0524
1395.00,0.0522
1394.00,0.0520
1393.00,0.0518
1392.00,0.0517
1391.00,0.0516
1390.00,0.0516
1389.00,0.0516
1388.00,0.0517
1387.00,0.0519
1386.00,0.0521
1385.00,0.0524
1384.00,0.0526
1383.00,0.0529
1382.00,0.0532
1381.00,0.0534
1380.00,0.0537
1379.00,0.0540
1378.00,0.0542
1377.00,0.0543
1376.00,0.0544
1375.00,0.0544
1374.00,0.0543
1373.00,0.0543
1372.00,0.0542
1371.00,0.0541
1370.00,0.0540
1369.00,0.0538
1368.00,0.0536
1367.00,0.0534
1366.00,0.0531
1365.00,0.0529
1364.00,0.0526
1363.00,0.0523
1362.00,0.0521
1361.00,0.0519
1360.00,0.0517
1359.00,0.0515
1358.00,0.0513
1357.00,0.0511
1356.00,0.0509
1355.00,0.0506
1354.00,0.0504
1353.00,0.0501
1352.00,0.0499
1351.00,0.0497
1350.00,0.0495
1349.00,0.0492
1348.00,0.0490
1347.00,0.0488
1346.00,0.0486
1345.00,0.0485
1344.00,0.0484
1343.00,0.0484
1342.00,0.0483
1341.00,0.0482
1340.00,0.0481
1339.00,0.0481
1338.00,0.0481
1337.00,0.0481
1336.00,0.0480
1335.00,0.0479
1334.00,0.0477
1333.00,0.0476
1332.00,0.0474
1331.00,0.0473
1330.00,0.0472
1329.00,0.0471
1328.00,0.0471
1327.00,0.0471
1326.00,0.0471
1325.00,0.0472
1324.00,0.0473
1323.00,0.0474
1322.00,0.0476
1321.00,0.0478
1320.00,0.0480
1319.00,0.0482
1318.00,0.0483
1317.00,0.0483
1316.00,0.0483
1315.00,0.0482
1314.00,0.0481
1313.00,0.0480
1312.00,0.0479
1311.00,0.0478
1310.00,0.0477
1309.00,0.0476
1308.00,0.0475
1307.00,0.0474
1306.00,0.0473
1305.00,0.0473
1304.00,0.0473
1303.00,0.0473
1302.00,0.0474
1301.00,0.0474
1300.00,0.0475
1299.00,0.0476
1298.00,0.0477
1297.00,0.0479
1296.00,0.0482
1295.00,0.0485
1294.00,0.0488
1293.00,0.0492
1292.00,0.0496
1291.00,0.0501
1290.00,0.0507
1289.00,0.0513
1288.00,0.0519
1287.00,0.0526
1286.00,0.0534
1285.00,0.0542
1284.00,0.0550
1283.00,0.0559
1282.00,0.0568
1281.00,0.0578
1280.00,0.0587
1279.00,0.0596
1278.00,0.0606
1277.00,0.0615
1276.00,0.0625
1275.00,0.0634
1274.00,0.0643
1273.00,0.0653
1272.00,0.0662
1271.00,0.0672
1270.00,0.0681
1269.00,0.0691
1268.00,0.0701
1267.00,0.0710
1266.00,0.0719
1265.00,0.0727
1264.00,0.0736
1263.00,0.0744
1262.00,0.0751
1261.00,0.0758
1260.00,0.0765
1259.00,0.0771
1258.00,0.0777
1257.00,0.0783
1256.00,0.0790
1255.00,0.0796
1254.00,0.0802
1253.00,0.0809
1252.00,0.0815
1251.00,0.0823
1250.00,0.0831
1249.00,0.0841
1248.00,0.0852
1247.00,0.0863
1246.00,0.0876
1245.00,0.0889
1244.00,0.0903
1243.00,0.0917
1242.00,0.0932
1241.00,0.0947
1240.00,0.0961
1239.00,0.0976
1238.00,0.0990
1237.00,0.1004
1236.00,0.1016
1235.00,0.1028
1234.00,0.1038
1233.00,0.1047
1232.00,0.1054
1231.00,0.1061
1230.00,0.1066
1229.00,0.1071
1228.00,0.1074
1227.00,0.1077
1226.00,0.1080
1225.00,0.1082
1224.00,0.1085
1223.00,0.1087
1222.00,0.1090
1221.00,0.1092
1220.00,0.1094
1219.00,0.1096
1218.00,0.1098
1217.00,0.1100
1216.00,0.1102
1215.00,0.1103
1214.00,0.1103
1213.00,0.1104
1212.00,0.1106
1211.00,0.1108
1210.00,0.1111
1209.00,0.1115
1208.00,0.1119
1207.00,0.1124
1206.00,0.1128
1205.00,0.1133
1204.00,0.1139
1203.00,0.1144
1202.00,0.1150
1201.00,0.1157
1200.00,0.1164
1199.00,0.1172
1198.00,0.1181
1197.00,0.1190
1196.00,0.1201
1195.00,0.1212
1194.00,0.1223
1193.00,0.1235
1192.00,0.1246
1191.00,0.1258
1190.00,0.1270
1189.00,0.1283
1188.00,0.1296
1187.00,0.1310
1186.00,0.1323
1185.00,0.1336
1184.00,0.1350
1183.00,0.1365
1182.00,0.1379
1181.00,0.1395
1180.00,0.1411
1179.00,0.1428
1178.00,0.1446
1177.00,0.1464
1176.00,0.1484
1175.00,0.1505
1174.00,0.1526
1173.00,0.1549
1172.00,0.1573
1171.00,0.1598
1170.00,0.1625
1169.00,0.1654
1168.00,0.1685
1167.00,0.1717
1166.00,0.1751
1165.00,0.1785
1164.00,0.1820
1163.00,0.1856
1162.00,0.1891
1161.00,0.1926
1160.00,0.1960
1159.00,0.1992
1158.00,0.2023
1157.00,0.2054
1156.00,0.2085
1155.00,0.2115
1154.00,0.2143
1153.00,0.2170
1152.00,0.2195
1151.00,0.2218
1150.00,0.2239
1149.00,0.2259
1148.00,0.2277
1147.00,0.2292
1146.00,0.2304
1145.00,0.2313
1144.00,0.2321
1143.00,0.2326
1142.00,0.2329
1141.00,0.2331
1140.00,0.2334
1139.00,0.2337
1138.00,0.2342
1137.00,0.2350
1136.00,0.2361
1135.00,0.2376
1134.00,0.2393
1133.00,0.2415
1132.00,0.2439
1131.00,0.2465
1130.00,0.2492
1129.00,0.2521
1128.00,0.2551
1127.00,0.2580
1126.00,0.2609
1125.00,0.2637
1124.00,0.2665
1123.00,0.2691
1122.00,0.2717
1121.00,0.2742
1120.00,0.2767
1119.00,0.2791
1118.00,0.2816
1117.00,0.2841
1116.00,0.2867
1115.00,0.2893
1114.00,0.2919
1113.00,0.2945
1112.00,0.2970
1111.00,0.2994
1110.00,0.3016
1109.00,0.3039
1108.00,0.3061
1107.00,0.3081
1106.00,0.3099
1105.00,0.3115
1104.00,0.3128
1103.00,0.3138
1102.00,0.3142
1101.00,0.3143
1100.00,0.3139
1099.00,0.3131
1098.00,0.3118
1097.00,0.3102
1096.00,0.3084
1095.00,0.3064
1094.00,0.3041
1093.00,0.3019
1092.00,0.2998
1091.00,0.2977
1090.00,0.2956
1089.00,0.2935
1088.00,0.2917
1087.00,0.2900
1086.00,0.2886
1085.00,0.2874
1084.00,0.2865
1083.00,0.2857
1082.00,0.2849
1081.00,0.2842
1080.00,0.2836
1079.00,0.2830
1078.00,0.2824
1077.00,0.2819
1076.00,0.2813
1075.00,0.2806
1074.00,0.2798
1073.00,0.2789
1072.00,0.2781
1071.00,0.2774
1070.00,0.2767
1069.00,0.2764
1068.00,0.2765
1067.00,0.2769
1066.00,0.2776
1065.00,0.2787
1064.00,0.2803
1063.00,0.2821
1062.00,0.2842
1061.00,0.2865
1060.00,0.2890
1059.00,0.2914
1058.00,0.2937
1057.00,0.2961
1056.00,0.2986
1055.00,0.3010
1054.00,0.3033
1053.00,0.3055
1052.00,0.3077
1051.00,0.3095
1050.00,0.3110
1049.00,0.3124
1048.00,0.3138
1047.00,0.3149
1046.00,0.3158
1045.00,0.3167
1044.00,0.3176
1043.00,0.3184
1042.00,0.3192
1041.00,0.3200
1040.00,0.3207
1039.00,0.3212
1038.00,0.3216
1037.00,0.3219
1036.00,0.3221
1035.00,0.3220
1034.00,0.3216
1033.00,0.3210
1032.00,0.3203
1031.00,0.3195
1030.00,0.3185
1029.00,0.3173
1028.00,0.3161
1027.00,0.3147
1026.00,0.3130
1025.00,0.3113
1024.00,0.3095
1023.00,0.3076
1022.00,0.3057
1021.00,0.3038
1020.00,0.3020
1019.00,0.2999
1018.00,0.2977
1017.00,0.2954
1016.00,0.2932
1015.00,0.2910
1014.00,0.2887
1013.00,0.2863
1012.00,0.2839
1011.00,0.2813
1010.00,0.2789
1009.00,0.2765
1008.00,0.2742
1007.00,0.2718
1006.00,0.2694
1005.00,0.2668
1004.00,0.2643
1003.00,0.2616
1002.00,0.2589
1001.00,0.2561
1000.00,0.2532
999.00,0.2500
998.00,0.2466
997.00,0.2430
996.00,0.2393
995.00,0.2355
994.00,0.2316
993.00,0.2275
992.00,0.2232
991.00,0.2189
990.00,0.2144
989.00,0.2099
988.00,0.2053
987.00,0.2007
986.00,0.1959
985.00,0.1912
984.00,0.1864
983.00,0.1817
982.00,0.1772
981.00,0.1730
980.00,0.1691
979.00,0.1654
978.00,0.1619
977.00,0.1587
976.00,0.1558
975.00,0.1532
974.00,0.1508
973.00,0.1488
972.00,0.1469
971.00,0.1451
970.00,0.1434
969.00,0.1418
968.00,0.1404
967.00,0.1391
966.00,0.1379
965.00,0.1367
964.00,0.1358
963.00,0.1350
962.00,0.1345
961.00,0.1343
960.00,0.1345
959.00,0.1349
958.00,0.1356
957.00,0.1365
956.00,0.1378
955.00,0.1393
954.00,0.1411
953.00,0.1432
952.00,0.1457
951.00,0.1485
950.00,0.1516
949.00,0.1551
948.00,0.1589
947.00,0.1629
946.00,0.1672
945.00,0.1716
944.00,0.1761
943.00,0.1807
942.00,0.1853
941.00,0.1899
940.00,0.1944
939.00,0.1988
938.00,0.2031
937.00,0.2071
936.00,0.2110
935.00,0.2145
934.00,0.2178
933.00,0.2207
932.00,0.2234
931.00,0.2257
930.00,0.2276
929.00,0.2293
928.00,0.2309
927.00,0.2322
926.00,0.2335
925.00,0.2347
924.00,0.2360
923.00,0.2373
922.00,0.2385
921.00,0.2399
920.00,0.2414
919.00,0.2429
918.00,0.2445
917.00,0.2461
916.00,0.2478
915.00,0.2494
914.00,0.2509
913.00,0.2525
912.00,0.2539
911.00,0.2551
910.00,0.2560
909.00,0.2566
908.00,0.2570
907.00,0.2571
906.00,0.2569
905.00,0.2564
904.00,0.2556
903.00,0.2545
902.00,0.2529
901.00,0.2510
900.00,0.2488
899.00,0.2463
898.00,0.2434
897.00,0.2403
896.00,0.2371
895.00,0.2337
894.00,0.2302
893.00,0.2266
892.00,0.2229
891.00,0.2190
890.00,0.2151
889.00,0.2112
888.00,0.2072
887.00,0.2033
886.00,0.1992
885.00,0.1952
884.00,0.1913
883.00,0.1876
882.00,0.1841
881.00,0.1809
880.00,0.1780
879.00,0.1754
878.00,0.1733
877.00,0.1716
876.00,0.1701
875.00,0.1689
874.00,0.1679
873.00,0.1669
872.00,0.1658
871.00,0.1642
870.00,0.1622
869.00,0.1599
868.00,0.1576
867.00,0.1554
866.00,0.1535
865.00,0.1520
864.00,0.1507
863.00,0.1497
862.00,0.1488
861.00,0.1481
860.00,0.1477
859.00,0.1474
858.00,0.1473
857.00,0.1474
856.00,0.1475
855.00,0.1477
854.00,0.1480
853.00,0.1483
852.00,0.1487
851.00,0.1491
850.00,0.1495
849.00,0.1499
848.00,0.1501
847.00,0.1502
846.00,0.1502
845.00,0.1501
844.00,0.1499
843.00,0.1496
842.00,0.1492
841.00,0.1489
840.00,0.1486
839.00,0.1484
838.00,0.1482
837.00,0.1480
836.00,0.1478
835.00,0.1475
834.00,0.1473
833.00,0.1470
832.00,0.1468
831.00,0.1466
830.00,0.1464
829.00,0.1463
828.00,0.1461
827.00,0.1459
826.00,0.1456
825.00,0.1455
824.00,0.1456
823.00,0.1458
822.00,0.1459
821.00,0.1460
820.00,0.1460
819.00,0.1460
818.00,0.1460
817.00,0.1462
816.00,0.1464
815.00,0.1466
814.00,0.1468
813.00,0.1470
812.00,0.1473
811.00,0.1476
810.00,0.1479
809.00,0.1481
808.00,0.1483
807.00,0.1485
806.00,0.1488
805.00,0.1491
804.00,0.1495
803.00,0.1499
802.00,0.1502
801.00,0.1505
800.00,0.1508
799.00,0.1511
798.00,0.1513
797.00,0.1515
796.00,0.1518
795.00,0.1521
794.00,0.1523
793.00,0.1526
792.00,0.1529
791.00,0.1532
790.00,0.1536
789.00,0.1541
788.00,0.1546
787.00,0.1552
786.00,0.1558
785.00,0.1564
784.00,0.1571
783.00,0.1579
782.00,0.1586
781.00,0.1594
780.00,0.1602
779.00,0.1611
778.00,0.1620
777.00,0.1630
776.00,0.1641
775.00,0.1652
774.00,0.1663
773.00,0.1674
772.00,0.1685
771.00,0.1696
770.00,0.1706
769.00,0.1716
768.00,0.1727
767.00,0.1738
766.00,0.1750
765.00,0.1763
764.00,0.1776
763.00,0.1791
762.00,0.1805
761.00,0.1819
760.00,0.1833
759.00,0.1845
758.00,0.1856
757.00,0.1867
756.00,0.1879
755.00,0.1890
754.00,0.1901
753.00,0.1911
752.00,0.1921
751.00,0.1931
750.00,0.1941
749.00,0.1951
748.00,0.1961
747.00,0.1970
746.00,0.1978
745.00,0.1986
744.00,0.1993
743.00,0.1999
742.00,0.2004
741.00,0.2010
740.00,0.2015
739.00,0.2020
738.00,0.2023
737.00,0.2027
736.00,0.2033
735.00,0.2039
734.00,0.2045
733.00,0.2050
732.00,0.2055
731.00,0.2060
730.00,0.2065
729.00,0.2071
728.00,0.2077
727.00,0.2082
726.00,0.2086
725.00,0.2091
724.00,0.2096
723.00,0.2101
722.00,0.2106
721.00,0.2110
720.00,0.2114
719.00,0.2117
718.00,0.2120
717.00,0.2124
716.00,0.2128
715.00,0.2132
714.00,0.2135
713.00,0.2137
712.00,0.2141
711.00,0.2145
710.00,0.2150
709.00,0.2156
708.00,0.2163
707.00,0.2169
706.00,0.2174
705.00,0.2178
704.00,0.2182
703.00,0.2187
702.00,0.2192
701.00,0.2197
700.00,0.2201
699.00,0.2204
698.00,0.2206
697.00,0.2208
696.00,0.2210
695.00,0.2212
694.00,0.2214
693.00,0.2215
692.00,0.2215
691.00,0.2215
690.00,0.2215
689.00,0.2216
688.00,0.2219
687.00,0.2224
686.00,0.2229
685.00,0.2232
684.00,0.2233
683.00,0.2234
682.00,0.2236
681.00,0.2239
680.00,0.2244
679.00,0.2249
678.00,0.2253
677.00,0.2258
676.00,0.2264
675.00,0.2271
674.00,0.2276
673.00,0.2281
672.00,0.2284
671.00,0.2284
670.00,0.2285
669.00,0.2290
668.00,0.2306
667.00,0.2325
666.00,0.2336
665.00,0.2338
664.00,0.2339
663.00,0.2340
662.00,0.2343
661.00,0.2346
660.00,0.2349
659.00,0.2351
658.00,0.2354
657.00,0.2356
656.00,0.2360
655.00,0.2365
654.00,0.2370
653.00,0.2376
652.00,0.2382
651.00,0.2387
650.00,0.2391
649.00,0.2396
648.00,0.2401
647.00,0.2406
646.00,0.2412
645.00,0.2419
644.00,0.2427
643.00,0.2434
642.00,0.2440
641.00,0.2447
640.00,0.2455
639.00,0.2464
638.00,0.2473
637.00,0.2483
636.00,0.2495
635.00,0.2510
634.00,0.2528
633.00,0.2546
632.00,0.2564
631.00,0.2582
630.00,0.2598
629.00,0.2616
628.00,0.2637
627.00,0.2661
626.00,0.2686
625.00,0.2711
624.00,0.2736
623.00,0.2761
622.00,0.2784
621.00,0.2806
620.00,0.2828
619.00,0.2847
618.00,0.2866
617.00,0.2885
616.00,0.2905
615.00,0.2923
614.00,0.2938
613.00,0.2952
612.00,0.2965
611.00,0.2977
610.00,0.2988
609.00,0.3000
608.00,0.3013
607.00,0.3027
606.00,0.3041
605.00,0.3055
604.00,0.3072
603.00,0.3088
602.00,0.3103
601.00,0.3118
600.00,0.3135
599.00,0.3152
598.00,0.3169
597.00,0.3187
596.00,0.3208
595.00,0.3229
594.00,0.3251
593.00,0.3276
592.00,0.3306
591.00,0.3338
590.00,0.3369
589.00,0.3401
588.00,0.3434
587.00,0.3466
586.00,0.3497
585.00,0.3528
584.00,0.3563
583.00,0.3600
582.00,0.3637
581.00,0.3673
580.00,0.3711
579.00,0.3746
578.00,0.3780
577.00,0.3818
576.00,0.3862
575.00,0.3907
574.00,0.3949
573.00,0.3990
572.00,0.4031
571.00,0.4071
570.00,0.4109
569.00,0.4146
568.00,0.4184
567.00,0.4221
566.00,0.4254
565.00,0.4286
564.00,0.4320
563.00,0.4354
562.00,0.4387
561.00,0.4421
560.00,0.4457
559.00,0.4487
558.00,0.4507
557.00,0.4522
556.00,0.4539
555.00,0.4554
554.00,0.4566
553.00,0.4577
552.00,0.4588
551.00,0.4593
550.00,0.4586
549.00,0.4574
548.00,0.4566
547.00,0.4562
546.00,0.4559
545.00,0.4557
544.00,0.4553
543.00,0.4542
542.00,0.4524
541.00,0.4507
540.00,0.4498
539.00,0.4490
538.00,0.4477
537.00,0.4460
536.00,0.4446
535.00,0.4430
534.00,0.4412
533.00,0.4394
532.00,0.4382
531.00,0.4372
530.00,0.4361
529.00,0.4350
528.00,0.4342
527.00,0.4336
526.00,0.4330
525.00,0.4324
524.00,0.4319
523.00,0.4312
522.00,0.4301
521.00,0.4292
520.00,0.4287
519.00,0.4281
518.00,0.4271
517.00,0.4259
516.00,0.4249
515.00,0.4235
514.00,0.4215
513.00,0.4195
512.00,0.4183
511.00,0.4178
510.00,0.4176
509.00,0.4175
508.00,0.4176
507.00,0.4176
506.00,0.4175
505.00,0.4177
504.00,0.4185
503.00,0.4196
502.00,0.4210
501.00,0.4228
500.00,0.4250
499.00,0.4270
498.00,0.4283
497.00,0.4294
496.00,0.4307
495.00,0.4321
494.00,0.4335
493.00,0.4351
492.00,0.4367
491.00,0.4377
490.00,0.4381
489.00,0.4387
488.00,0.4401
487.00,0.4413
486.00,0.4411
485.00,0.4398
484.00,0.4385
483.00,0.4380
482.00,0.4381
481.00,0.4388
480.00,0.4399
479.00,0.4406
478.00,0.4403
477.00,0.4395
476.00,0.4389
475.00,0.4383
474.00,0.4376
473.00,0.4373
472.00,0.4373
471.00,0.4369
470.00,0.4359
469.00,0.4353
468.00,0.4359
467.00,0.4367
466.00,0.4366
465.00,0.4362
464.00,0.4361
463.00,0.4359
462.00,0.4346
461.00,0.4327
460.00,0.4310
459.00,0.4293
458.00,0.4276
457.00,0.4267
456.00,0.4266
455.00,0.4258
454.00,0.4236
453.00,0.4218
452.00,0.4218
451.00,0.4228
450.00,0.4233
