Created as New Dataset,Sample 016 By Administrator Date Thursday, May 29 2025
cm-1,A
4000.00,0.0044
3999.00,0.0044
3998.00,0.0044
3997.00,0.0044
3996.00,0.0045
3995.00,0.0045
3994.00,0.0045
3993.00,0.0045
3992.00,0.0045
3991.00,0.0045
3990.00,0.0045
3989.00,0.0044
3988.00,0.0044
3987.00,0.0044
3986.00,0.0044
3985.00,0.0044
3984.00,0.0044
3983.00,0.0044
3982.00,0.0044
3981.00,0.0044
3980.00,0.0043
3979.00,0.0043
3978.00,0.0044
3977.00,0.0044
3976.00,0.0044
3975.00,0.0044
3974.00,0.0045
3973.00,0.0045
3972.00,0.0045
3971.00,0.0045
3970.00,0.0045
3969.00,0.0045
3968.00,0.0045
3967.00,0.0045
3966.00,0.0045
3965.00,0.0045
3964.00,0.0045
3963.00,0.0046
3962.00,0.0046
3961.00,0.0045
3960.00,0.0045
3959.00,0.0044
3958.00,0.0044
3957.00,0.0045
3956.00,0.0045
3955.00,0.0044
3954.00,0.0044
3953.00,0.0045
3952.00,0.0045
3951.00,0.0045
3950.00,0.0045
3949.00,0.0045
3948.00,0.0045
3947.00,0.0045
3946.00,0.0045
3945.00,0.0045
3944.00,0.0046
3943.00,0.0046
3942.00,0.0045
3941.00,0.0045
3940.00,0.0045
3939.00,0.0044
3938.00,0.0044
3937.00,0.0045
3936.00,0.0045
3935.00,0.0046
3934.00,0.0046
3933.00,0.0046
3932.00,0.0046
3931.00,0.0046
3930.00,0.0046
3929.00,0.0046
3928.00,0.0046
3927.00,0.0045
3926.00,0.0045
3925.00,0.0044
3924.00,0.0044
3923.00,0.0044
3922.00,0.0044
3921.00,0.0044
3920.00,0.0044
3919.00,0.0044
3918.00,0.0044
3917.00,0.0044
3916.00,0.0044
3915.00,0.0045
3914.00,0.0045
3913.00,0.0045
3912.00,0.0045
3911.00,0.0045
3910.00,0.0045
3909.00,0.0045
3908.00,0.0045
3907.00,0.0045
3906.00,0.0044
3905.00,0.0044
3904.00,0.0044
3903.00,0.0044
3902.00,0.0044
3901.00,0.0044
3900.00,0.0044
3899.00,0.0044
3898.00,0.0044
3897.00,0.0045
3896.00,0.0045
3895.00,0.0045
3894.00,0.0045
3893.00,0.0045
3892.00,0.0045
3891.00,0.0044
3890.00,0.0044
3889.00,0.0044
3888.00,0.0044
3887.00,0.0045
3886.00,0.0045
3885.00,0.0045
3884.00,0.0044
3883.00,0.0044
3882.00,0.0044
3881.00,0.0044
3880.00,0.0043
3879.00,0.0043
3878.00,0.0043
3877.00,0.0044
3876.00,0.0044
3875.00,0.0045
3874.00,0.0044
3873.00,0.0044
3872.00,0.0044
3871.00,0.0044
3870.00,0.0044
3869.00,0.0043
3868.00,0.0043
3867.00,0.0043
3866.00,0.0044
3865.00,0.0044
3864.00,0.0044
3863.00,0.0044
3862.00,0.0044
3861.00,0.0044
3860.00,0.0044
3859.00,0.0044
3858.00,0.0042
3857.00,0.0040
3856.00,0.0040
3855.00,0.0040
3854.00,0.0040
3853.00,0.0038
3852.00,0.0038
3851.00,0.0039
3850.00,0.0041
3849.00,0.0043
3848.00,0.0045
3847.00,0.0045
3846.00,0.0046
3845.00,0.0046
3844.00,0.0045
3843.00,0.0044
3842.00,0.0043
3841.00,0.0042
3840.00,0.0042
3839.00,0.0042
3838.00,0.0042
3837.00,0.0042
3836.00,0.0043
3835.00,0.0043
3834.00,0.0043
3833.00,0.0044
3832.00,0.0044
3831.00,0.0045
3830.00,0.0045
3829.00,0.0045
3828.00,0.0046
3827.00,0.0046
3826.00,0.0046
3825.00,0.0045
3824.00,0.0045
3823.00,0.0045
3822.00,0.0045
3821.00,0.0044
3820.00,0.0042
3819.00,0.0041
3818.00,0.0042
3817.00,0.0043
3816.00,0.0044
3815.00,0.0044
3814.00,0.0045
3813.00,0.0045
3812.00,0.0046
3811.00,0.0046
3810.00,0.0046
3809.00,0.0046
3808.00,0.0046
3807.00,0.0046
3806.00,0.0045
3805.00,0.0044
3804.00,0.0045
3803.00,0.0045
3802.00,0.0046
3801.00,0.0046
3800.00,0.0045
3799.00,0.0046
3798.00,0.0047
3797.00,0.0048
3796.00,0.0048
3795.00,0.0048
3794.00,0.0048
3793.00,0.0048
3792.00,0.0049
3791.00,0.0049
3790.00,0.0050
3789.00,0.0050
3788.00,0.0050
3787.00,0.0050
3786.00,0.0050
3785.00,0.0050
3784.00,0.0050
3783.00,0.0050
3782.00,0.0050
3781.00,0.0051
3780.00,0.0051
3779.00,0.0050
3778.00,0.0050
3777.00,0.0050
3776.00,0.0050
3775.00,0.0051
3774.00,0.0051
3773.00,0.0051
3772.00,0.0051
3771.00,0.0050
3770.00,0.0050
3769.00,0.0050
3768.00,0.0050
3767.00,0.0051
3766.00,0.0052
3765.00,0.0052
3764.00,0.0052
3763.00,0.0053
3762.00,0.0053
3761.00,0.0053
3760.00,0.0053
3759.00,0.0053
3758.00,0.0053
3757.00,0.0052
3756.00,0.0052
3755.00,0.0052
3754.00,0.0051
3753.00,0.0051
3752.00,0.0051
3751.00,0.0051
3750.00,0.0051
3749.00,0.0051
3748.00,0.0051
3747.00,0.0051
3746.00,0.0052
3745.00,0.0053
3744.00,0.0053
3743.00,0.0054
3742.00,0.0054
3741.00,0.0055
3740.00,0.0055
3739.00,0.0056
3738.00,0.0057
3737.00,0.0057
3736.00,0.0057
3735.00,0.0057
3734.00,0.0056
3733.00,0.0056
3732.00,0.0057
3731.00,0.0057
3730.00,0.0058
3729.00,0.0059
3728.00,0.0060
3727.00,0.0061
3726.00,0.0061
3725.00,0.0061
3724.00,0.0061
3723.00,0.0061
3722.00,0.0062
3721.00,0.0063
3720.00,0.0064
3719.00,0.0065
3718.00,0.0066
3717.00,0.0067
3716.00,0.0066
3715.00,0.0066
3714.00,0.0066
3713.00,0.0067
3712.00,0.0067
3711.00,0.0068
3710.00,0.0069
3709.00,0.0070
3708.00,0.0072
3707.00,0.0073
3706.00,0.0074
3705.00,0.0074
3704.00,0.0074
3703.00,0.0075
3702.00,0.0075
3701.00,0.0077
3700.00,0.0078
3699.00,0.0080
3698.00,0.0082
3697.00,0.0084
3696.00,0.0084
3695.00,0.0085
3694.00,0.0085
3693.00,0.0086
3692.00,0.0087
3691.00,0.0088
3690.00,0.0090
3689.00,0.0092
3688.00,0.0094
3687.00,0.0096
3686.00,0.0099
3685.00,0.0101
3684.00,0.0104
3683.00,0.0106
3682.00,0.0108
3681.00,0.0110
3680.00,0.0110
3679.00,0.0111
3678.00,0.0112
3677.00,0.0114
3676.00,0.0118
3675.00,0.0121
3674.00,0.0124
3673.00,0.0127
3672.00,0.0131
3671.00,0.0135
3670.00,0.0139
3669.00,0.0143
3668.00,0.0147
3667.00,0.0151
3666.00,0.0156
3665.00,0.0161
3664.00,0.0165
3663.00,0.0169
3662.00,0.0173
3661.00,0.0176
3660.00,0.0178
3659.00,0.0181
3658.00,0.0185
3657.00,0.0190
3656.00,0.0195
3655.00,0.0200
3654.00,0.0203
3653.00,0.0206
3652.00,0.0209
3651.00,0.0213
3650.00,0.0218
3649.00,0.0225
3648.00,0.0234
3647.00,0.0242
3646.00,0.0249
3645.00,0.0256
3644.00,0.0261
3643.00,0.0266
3642.00,0.0271
3641.00,0.0276
3640.00,0.0281
3639.00,0.0286
3638.00,0.0292
3637.00,0.0297
3636.00,0.0302
3635.00,0.0308
3634.00,0.0312
3633.00,0.0316
3632.00,0.0319
3631.00,0.0323
3630.00,0.0329
3629.00,0.0336
3628.00,0.0345
3627.00,0.0354
3626.00,0.0362
3625.00,0.0368
3624.00,0.0372
3623.00,0.0376
3622.00,0.0380
3621.00,0.0384
3620.00,0.0391
3619.00,0.0398
3618.00,0.0405
3617.00,0.0412
3616.00,0.0418
3615.00,0.0424
3614.00,0.0428
3613.00,0.0433
3612.00,0.0438
3611.00,0.0444
3610.00,0.0450
3609.00,0.0457
3608.00,0.0464
3607.00,0.0471
3606.00,0.0477
3605.00,0.0483
3604.00,0.0488
3603.00,0.0493
3602.00,0.0498
3601.00,0.0503
3600.00,0.0509
3599.00,0.0514
3598.00,0.0520
3597.00,0.0526
3596.00,0.0532
3595.00,0.0538
3594.00,0.0544
3593.00,0.0550
3592.00,0.0555
3591.00,0.0559
3590.00,0.0562
3589.00,0.0566
3588.00,0.0573
3587.00,0.0581
3586.00,0.0589
3585.00,0.0597
3584.00,0.0603
3583.00,0.0608
3582.00,0.0613
3581.00,0.0618
3580.00,0.0623
3579.00,0.0627
3578.00,0.0632
3577.00,0.0638
3576.00,0.0643
3575.00,0.0649
3574.00,0.0654
3573.00,0.0659
3572.00,0.0663
3571.00,0.0667
3570.00,0.0670
3569.00,0.0675
3568.00,0.0681
3567.00,0.0690
3566.00,0.0699
3565.00,0.0707
3564.00,0.0714
3563.00,0.0720
3562.00,0.0725
3561.00,0.0729
3560.00,0.0734
3559.00,0.0739
3558.00,0.0744
3557.00,0.0748
3556.00,0.0753
3555.00,0.0757
3554.00,0.0762
3553.00,0.0767
3552.00,0.0773
3551.00,0.0779
3550.00,0.0784
3549.00,0.0789
3548.00,0.0794
3547.00,0.0800
3546.00,0.0806
3545.00,0.0813
3544.00,0.0819
3543.00,0.0825
3542.00,0.0831
3541.00,0.0836
3540.00,0.0840
3539.00,0.0845
3538.00,0.0850
3537.00,0.0856
3536.00,0.0860
3535.00,0.0865
3534.00,0.0869
3533.00,0.0874
3532.00,0.0878
3531.00,0.0884
3530.00,0.0889
3529.00,0.0895
3528.00,0.0901
3527.00,0.0907
3526.00,0.0913
3525.00,0.0918
3524.00,0.0924
3523.00,0.0930
3522.00,0.0936
3521.00,0.0941
3520.00,0.0946
3519.00,0.0951
3518.00,0.0956
3517.00,0.0961
3516.00,0.0966
3515.00,0.0971
3514.00,0.0976
3513.00,0.0981
3512.00,0.0985
3511.00,0.0991
3510.00,0.0996
3509.00,0.1002
3508.00,0.1008
3507.00,0.1013
3506.00,0.1018
3505.00,0.1023
3504.00,0.1029
3503.00,0.1034
3502.00,0.1040
3501.00,0.1046
3500.00,0.1051
3499.00,0.1055
3498.00,0.1060
3497.00,0.1064
3496.00,0.1069
3495.00,0.1075
3494.00,0.1080
3493.00,0.1086
3492.00,0.1090
3491.00,0.1095
3490.00,0.1100
3489.00,0.1105
3488.00,0.1111
3487.00,0.1115
3486.00,0.1120
3485.00,0.1124
3484.00,0.1129
3483.00,0.1134
3482.00,0.1139
3481.00,0.1145
3480.00,0.1150
3479.00,0.1155
3478.00,0.1159
3477.00,0.1163
3476.00,0.1167
3475.00,0.1171
3474.00,0.1176
3473.00,0.1181
3472.00,0.1187
3471.00,0.1192
3470.00,0.1197
3469.00,0.1202
3468.00,0.1207
3467.00,0.1211
3466.00,0.1215
3465.00,0.1218
3464.00,0.1223
3463.00,0.1227
3462.00,0.1231
3461.00,0.1236
3460.00,0.1240
3459.00,0.1244
3458.00,0.1248
3457.00,0.1252
3456.00,0.1256
3455.00,0.1260
3454.00,0.1265
3453.00,0.1269
3452.00,0.1272
3451.00,0.1275
3450.00,0.1279
3449.00,0.1282
3448.00,0.1287
3447.00,0.1291
3446.00,0.1296
3445.00,0.1300
3444.00,0.1304
3443.00,0.1308
3442.00,0.1312
3441.00,0.1315
3440.00,0.1319
3439.00,0.1324
3438.00,0.1328
3437.00,0.1332
3436.00,0.1335
3435.00,0.1338
3434.00,0.1341
3433.00,0.1344
3432.00,0.1347
3431.00,0.1351
3430.00,0.1353
3429.00,0.1356
3428.00,0.1358
3427.00,0.1360
3426.00,0.1362
3425.00,0.1364
3424.00,0.1366
3423.00,0.1368
3422.00,0.1370
3421.00,0.1373
3420.00,0.1376
3419.00,0.1379
3418.00,0.1382
3417.00,0.1384
3416.00,0.1386
3415.00,0.1388
3414.00,0.1390
3413.00,0.1392
3412.00,0.1394
3411.00,0.1396
3410.00,0.1397
3409.00,0.1398
3408.00,0.1399
3407.00,0.1400
3406.00,0.1401
3405.00,0.1403
3404.00,0.1405
3403.00,0.1407
3402.00,0.1409
3401.00,0.1410
3400.00,0.1410
3399.00,0.1410
3398.00,0.1410
3397.00,0.1411
3396.00,0.1412
3395.00,0.1412
3394.00,0.1413
3393.00,0.1413
3392.00,0.1413
3391.00,0.1413
3390.00,0.1413
3389.00,0.1412
3388.00,0.1411
3387.00,0.1410
3386.00,0.1409
3385.00,0.1409
3384.00,0.1409
3383.00,0.1409
3382.00,0.1409
3381.00,0.1409
3380.00,0.1408
3379.00,0.1407
3378.00,0.1406
3377.00,0.1405
3376.00,0.1403
3375.00,0.1402
3374.00,0.1401
3373.00,0.1400
3372.00,0.1398
3371.00,0.1397
3370.00,0.1395
3369.00,0.1393
3368.00,0.1391
3367.00,0.1388
3366.00,0.1386
3365.00,0.1384
3364.00,0.1382
3363.00,0.1380
3362.00,0.1378
3361.00,0.1375
3360.00,0.1373
3359.00,0.1370
3358.00,0.1367
3357.00,0.1363
3356.00,0.1360
3355.00,0.1357
3354.00,0.1355
3353.00,0.1353
3352.00,0.1350
3351.00,0.1347
3350.00,0.1344
3349.00,0.1340
3348.00,0.1337
3347.00,0.1334
3346.00,0.1331
3345.00,0.1327
3344.00,0.1324
3343.00,0.1321
3342.00,0.1318
3341.00,0.1314
3340.00,0.1310
3339.00,0.1306
3338.00,0.1302
3337.00,0.1298
3336.00,0.1294
3335.00,0.1290
3334.00,0.1287
3333.00,0.1283
3332.00,0.1280
3331.00,0.1276
3330.00,0.1273
3329.00,0.1270
3328.00,0.1266
3327.00,0.1263
3326.00,0.1259
3325.00,0.1255
3324.00,0.1251
3323.00,0.1247
3322.00,0.1243
3321.00,0.1239
3320.00,0.1236
3319.00,0.1232
3318.00,0.1228
3317.00,0.1224
3316.00,0.1221
3315.00,0.1217
3314.00,0.1214
3313.00,0.1211
3312.00,0.1207
3311.00,0.1204
3310.00,0.1200
3309.00,0.1197
3308.00,0.1194
3307.00,0.1190
3306.00,0.1186
3305.00,0.1182
3304.00,0.1178
3303.00,0.1174
3302.00,0.1170
3301.00,0.1167
3300.00,0.1164
3299.00,0.1161
3298.00,0.1158
3297.00,0.1155
3296.00,0.1152
3295.00,0.1148
3294.00,0.1145
3293.00,0.1142
3292.00,0.1139
3291.00,0.1135
3290.00,0.1132
3289.00,0.1129
3288.00,0.1126
3287.00,0.1123
3286.00,0.1119
3285.00,0.1116
3284.00,0.1112
3283.00,0.1109
3282.00,0.1106
3281.00,0.1103
3280.00,0.1099
3279.00,0.1096
3278.00,0.1093
3277.00,0.1090
3276.00,0.1087
3275.00,0.1084
3274.00,0.1081
3273.00,0.1078
3272.00,0.1075
3271.00,0.1072
3270.00,0.1068
3269.00,0.1065
3268.00,0.1061
3267.00,0.1058
3266.00,0.1054
3265.00,0.1051
3264.00,0.1048
3263.00,0.1044
3262.00,0.1041
3261.00,0.1038
3260.00,0.1034
3259.00,0.1031
3258.00,0.1028
3257.00,0.1024
3256.00,0.1020
3255.00,0.1017
3254.00,0.1013
3253.00,0.1009
3252.00,0.1006
3251.00,0.1002
3250.00,0.0999
3249.00,0.0995
3248.00,0.0991
3247.00,0.0987
3246.00,0.0983
3245.00,0.0979
3244.00,0.0975
3243.00,0.0971
3242.00,0.0968
3241.00,0.0964
3240.00,0.0960
3239.00,0.0956
3238.00,0.0952
3237.00,0.0948
3236.00,0.0943
3235.00,0.0939
3234.00,0.0934
3233.00,0.0930
3232.00,0.0925
3231.00,0.0921
3230.00,0.0917
3229.00,0.0912
3228.00,0.0908
3227.00,0.0903
3226.00,0.0899
3225.00,0.0893
3224.00,0.0888
3223.00,0.0883
3222.00,0.0879
3221.00,0.0874
3220.00,0.0870
3219.00,0.0865
3218.00,0.0860
3217.00,0.0854
3216.00,0.0849
3215.00,0.0844
3214.00,0.0838
3213.00,0.0834
3212.00,0.0829
3211.00,0.0824
3210.00,0.0818
3209.00,0.0813
3208.00,0.0808
3207.00,0.0802
3206.00,0.0797
3205.00,0.0792
3204.00,0.0787
3203.00,0.0782
3202.00,0.0776
3201.00,0.0771
3200.00,0.0765
3199.00,0.0759
3198.00,0.0754
3197.00,0.0749
3196.00,0.0744
3195.00,0.0740
3194.00,0.0735
3193.00,0.0730
3192.00,0.0724
3191.00,0.0718
3190.00,0.0712
3189.00,0.0707
3188.00,0.0701
3187.00,0.0696
3186.00,0.0690
3185.00,0.0685
3184.00,0.0680
3183.00,0.0675
3182.00,0.0669
3181.00,0.0664
3180.00,0.0659
3179.00,0.0654
3178.00,0.0649
3177.00,0.0644
3176.00,0.0639
3175.00,0.0634
3174.00,0.0629
3173.00,0.0624
3172.00,0.0620
3171.00,0.0614
3170.00,0.0609
3169.00,0.0604
3168.00,0.0598
3167.00,0.0593
3166.00,0.0588
3165.00,0.0583
3164.00,0.0578
3163.00,0.0574
3162.00,0.0570
3161.00,0.0565
3160.00,0.0560
3159.00,0.0556
3158.00,0.0551
3157.00,0.0547
3156.00,0.0543
3155.00,0.0539
3154.00,0.0534
3153.00,0.0529
3152.00,0.0524
3151.00,0.0519
3150.00,0.0515
3149.00,0.0510
3148.00,0.0506
3147.00,0.0502
3146.00,0.0498
3145.00,0.0494
3144.00,0.0489
3143.00,0.0485
3142.00,0.0481
3141.00,0.0477
3140.00,0.0473
3139.00,0.0469
3138.00,0.0465
3137.00,0.0461
3136.00,0.0457
3135.00,0.0453
3134.00,0.0449
3133.00,0.0446
3132.00,0.0442
3131.00,0.0438
3130.00,0.0434
3129.00,0.0431
3128.00,0.0427
3127.00,0.0424
3126.00,0.0420
3125.00,0.0416
3124.00,0.0413
3123.00,0.0410
3122.00,0.0406
3121.00,0.0403
3120.00,0.0399
3119.00,0.0395
3118.00,0.0392
3117.00,0.0389
3116.00,0.0386
3115.00,0.0383
3114.00,0.0380
3113.00,0.0377
3112.00,0.0374
3111.00,0.0371
3110.00,0.0368
3109.00,0.0365
3108.00,0.0361
3107.00,0.0358
3106.00,0.0355
3105.00,0.0352
3104.00,0.0349
3103.00,0.0346
3102.00,0.0343
3101.00,0.0341
3100.00,0.0338
3099.00,0.0336
3098.00,0.0333
3097.00,0.0331
3096.00,0.0328
3095.00,0.0325
3094.00,0.0323
3093.00,0.0320
3092.00,0.0318
3091.00,0.0315
3090.00,0.0313
3089.00,0.0311
3088.00,0.0308
3087.00,0.0305
3086.00,0.0302
3085.00,0.0300
3084.00,0.0297
3083.00,0.0295
3082.00,0.0292
3081.00,0.0290
3080.00,0.0288
3079.00,0.0286
3078.00,0.0283
3077.00,0.0281
3076.00,0.0279
3075.00,0.0277
3074.00,0.0274
3073.00,0.0272
3072.00,0.0270
3071.00,0.0268
3070.00,0.0266
3069.00,0.0264
3068.00,0.0262
3067.00,0.0260
3066.00,0.0257
3065.00,0.0255
3064.00,0.0253
3063.00,0.0251
3062.00,0.0249
3061.00,0.0248
3060.00,0.0246
3059.00,0.0244
3058.00,0.0243
3057.00,0.0241
3056.00,0.0239
3055.00,0.0237
3054.00,0.0235
3053.00,0.0233
3052.00,0.0232
3051.00,0.0230
3050.00,0.0228
3049.00,0.0227
3048.00,0.0225
3047.00,0.0223
3046.00,0.0221
3045.00,0.0220
3044.00,0.0218
3043.00,0.0216
3042.00,0.0214
3041.00,0.0213
3040.00,0.0212
3039.00,0.0211
3038.00,0.0210
3037.00,0.0208
3036.00,0.0207
3035.00,0.0205
3034.00,0.0204
3033.00,0.0202
3032.00,0.0201
3031.00,0.0199
3030.00,0.0198
3029.00,0.0197
3028.00,0.0195
3027.00,0.0194
3026.00,0.0193
3025.00,0.0191
3024.00,0.0190
3023.00,0.0189
3022.00,0.0188
3021.00,0.0187
3020.00,0.0185
3019.00,0.0184
3018.00,0.0183
3017.00,0.0182
3016.00,0.0181
3015.00,0.0180
3014.00,0.0179
3013.00,0.0178
3012.00,0.0177
3011.00,0.0176
3010.00,0.0175
3009.00,0.0174
3008.00,0.0173
3007.00,0.0173
3006.00,0.0172
3005.00,0.0171
3004.00,0.0170
3003.00,0.0170
3002.00,0.0169
3001.00,0.0168
3000.00,0.0167
2999.00,0.0167
2998.00,0.0166
2997.00,0.0166
2996.00,0.0165
2995.00,0.0164
2994.00,0.0163
2993.00,0.0163
2992.00,0.0162
2991.00,0.0162
2990.00,0.0162
2989.00,0.0162
2988.00,0.0162
2987.00,0.0161
2986.00,0.0161
2985.00,0.0161
2984.00,0.0161
2983.00,0.0160
2982.00,0.0160
2981.00,0.0160
2980.00,0.0160
2979.00,0.0160
2978.00,0.0160
2977.00,0.0160
2976.00,0.0160
2975.00,0.0159
2974.00,0.0159
2973.00,0.0159
2972.00,0.0159
2971.00,0.0159
2970.00,0.0159
2969.00,0.0159
2968.00,0.0159
2967.00,0.0159
2966.00,0.0159
2965.00,0.0158
2964.00,0.0158
2963.00,0.0157
2962.00,0.0156
2961.00,0.0156
2960.00,0.0156
2959.00,0.0156
2958.00,0.0155
2957.00,0.0155
2956.00,0.0155
2955.00,0.0154
2954.00,0.0154
2953.00,0.0153
2952.00,0.0152
2951.00,0.0152
2950.00,0.0152
2949.00,0.0151
2948.00,0.0151
2947.00,0.0150
2946.00,0.0150
2945.00,0.0150
2944.00,0.0149
2943.00,0.0149
2942.00,0.0149
2941.00,0.0148
2940.00,0.0148
2939.00,0.0147
2938.00,0.0147
2937.00,0.0147
2936.00,0.0147
2935.00,0.0147
2934.00,0.0147
2933.00,0.0147
2932.00,0.0146
2931.00,0.0146
2930.00,0.0146
2929.00,0.0146
2928.00,0.0146
2927.00,0.0146
2926.00,0.0146
2925.00,0.0146
2924.00,0.0146
2923.00,0.0146
2922.00,0.0146
2921.00,0.0147
2920.00,0.0147
2919.00,0.0147
2918.00,0.0146
2917.00,0.0146
2916.00,0.0145
2915.00,0.0144
2914.00,0.0143
2913.00,0.0142
2912.00,0.0141
2911.00,0.0139
2910.00,0.0138
2909.00,0.0137
2908.00,0.0136
2907.00,0.0135
2906.00,0.0134
2905.00,0.0133
2904.00,0.0132
2903.00,0.0132
2902.00,0.0131
2901.00,0.0130
2900.00,0.0129
2899.00,0.0128
2898.00,0.0128
2897.00,0.0127
2896.00,0.0126
2895.00,0.0125
2894.00,0.0124
2893.00,0.0123
2892.00,0.0123
2891.00,0.0122
2890.00,0.0121
2889.00,0.0120
2888.00,0.0119
2887.00,0.0119
2886.00,0.0118
2885.00,0.0117
2884.00,0.0116
2883.00,0.0115
2882.00,0.0114
2881.00,0.0113
2880.00,0.0113
2879.00,0.0112
2878.00,0.0112
2877.00,0.0111
2876.00,0.0110
2875.00,0.0110
2874.00,0.0109
2873.00,0.0109
2872.00,0.0109
2871.00,0.0108
2870.00,0.0107
2869.00,0.0107
2868.00,0.0106
2867.00,0.0105
2866.00,0.0104
2865.00,0.0103
2864.00,0.0102
2863.00,0.0101
2862.00,0.0100
2861.00,0.0100
2860.00,0.0100
2859.00,0.0100
2858.00,0.0099
2857.00,0.0099
2856.00,0.0100
2855.00,0.0100
2854.00,0.0100
2853.00,0.0100
2852.00,0.0100
2851.00,0.0100
2850.00,0.0099
2849.00,0.0098
2848.00,0.0097
2847.00,0.0096
2846.00,0.0094
2845.00,0.0093
2844.00,0.0092
2843.00,0.0091
2842.00,0.0090
2841.00,0.0089
2840.00,0.0088
2839.00,0.0087
2838.00,0.0087
2837.00,0.0087
2836.00,0.0086
2835.00,0.0085
2834.00,0.0085
2833.00,0.0084
2832.00,0.0084
2831.00,0.0084
2830.00,0.0084
2829.00,0.0083
2828.00,0.0082
2827.00,0.0082
2826.00,0.0081
2825.00,0.0081
2824.00,0.0080
2823.00,0.0080
2822.00,0.0079
2821.00,0.0079
2820.00,0.0078
2819.00,0.0078
2818.00,0.0078
2817.00,0.0078
2816.00,0.0078
2815.00,0.0078
2814.00,0.0078
2813.00,0.0077
2812.00,0.0077
2811.00,0.0077
2810.00,0.0076
2809.00,0.0076
2808.00,0.0076
2807.00,0.0076
2806.00,0.0075
2805.00,0.0075
2804.00,0.0074
2803.00,0.0074
2802.00,0.0074
2801.00,0.0074
2800.00,0.0074
2799.00,0.0074
2798.00,0.0074
2797.00,0.0074
2796.00,0.0073
2795.00,0.0073
2794.00,0.0072
2793.00,0.0072
2792.00,0.0072
2791.00,0.0071
2790.00,0.0072
2789.00,0.0072
2788.00,0.0072
2787.00,0.0072
2786.00,0.0072
2785.00,0.0071
2784.00,0.0071
2783.00,0.0070
2782.00,0.0070
2781.00,0.0070
2780.00,0.0069
2779.00,0.0069
2778.00,0.0069
2777.00,0.0069
2776.00,0.0068
2775.00,0.0068
2774.00,0.0068
2773.00,0.0067
2772.00,0.0067
2771.00,0.0067
2770.00,0.0067
2769.00,0.0067
2768.00,0.0067
2767.00,0.0066
2766.00,0.0066
2765.00,0.0066
2764.00,0.0066
2763.00,0.0066
2762.00,0.0066
2761.00,0.0065
2760.00,0.0065
2759.00,0.0065
2758.00,0.0065
2757.00,0.0065
2756.00,0.0065
2755.00,0.0065
2754.00,0.0065
2753.00,0.0065
2752.00,0.0065
2751.00,0.0065
2750.00,0.0065
2749.00,0.0064
2748.00,0.0064
2747.00,0.0064
2746.00,0.0064
2745.00,0.0064
2744.00,0.0064
2743.00,0.0063
2742.00,0.0063
2741.00,0.0063
2740.00,0.0062
2739.00,0.0062
2738.00,0.0062
2737.00,0.0063
2736.00,0.0063
2735.00,0.0063
2734.00,0.0063
2733.00,0.0063
2732.00,0.0063
2731.00,0.0063
2730.00,0.0062
2729.00,0.0062
2728.00,0.0062
2727.00,0.0062
2726.00,0.0062
2725.00,0.0062
2724.00,0.0062
2723.00,0.0062
2722.00,0.0062
2721.00,0.0062
2720.00,0.0061
2719.00,0.0061
2718.00,0.0061
2717.00,0.0061
2716.00,0.0061
2715.00,0.0061
2714.00,0.0061
2713.00,0.0061
2712.00,0.0061
2711.00,0.0061
2710.00,0.0060
2709.00,0.0060
2708.00,0.0060
2707.00,0.0060
2706.00,0.0060
2705.00,0.0059
2704.00,0.0059
2703.00,0.0059
2702.00,0.0059
2701.00,0.0059
2700.00,0.0059
2699.00,0.0059
2698.00,0.0059
2697.00,0.0059
2696.00,0.0059
2695.00,0.0059
2694.00,0.0059
2693.00,0.0059
2692.00,0.0059
2691.00,0.0059
2690.00,0.0059
2689.00,0.0059
2688.00,0.0058
2687.00,0.0058
2686.00,0.0058
2685.00,0.0058
2684.00,0.0058
2683.00,0.0058
2682.00,0.0058
2681.00,0.0058
2680.00,0.0058
2679.00,0.0058
2678.00,0.0058
2677.00,0.0057
2676.00,0.0057
2675.00,0.0057
2674.00,0.0057
2673.00,0.0057
2672.00,0.0057
2671.00,0.0057
2670.00,0.0057
2669.00,0.0057
2668.00,0.0057
2667.00,0.0057
2666.00,0.0058
2665.00,0.0058
2664.00,0.0058
2663.00,0.0059
2662.00,0.0059
2661.00,0.0060
2660.00,0.0060
2659.00,0.0060
2658.00,0.0061
2657.00,0.0061
2656.00,0.0061
2655.00,0.0061
2654.00,0.0061
2653.00,0.0061
2652.00,0.0061
2651.00,0.0061
2650.00,0.0061
2649.00,0.0061
2648.00,0.0060
2647.00,0.0060
2646.00,0.0059
2645.00,0.0059
2644.00,0.0058
2643.00,0.0058
2642.00,0.0058
2641.00,0.0058
2640.00,0.0059
2639.00,0.0058
2638.00,0.0058
2637.00,0.0058
2636.00,0.0057
2635.00,0.0057
2634.00,0.0057
2633.00,0.0057
2632.00,0.0057
2631.00,0.0057
2630.00,0.0056
2629.00,0.0056
2628.00,0.0055
2627.00,0.0055
2626.00,0.0055
2625.00,0.0055
2624.00,0.0055
2623.00,0.0054
2622.00,0.0054
2621.00,0.0054
2620.00,0.0054
2619.00,0.0054
2618.00,0.0053
2617.00,0.0054
2616.00,0.0054
2615.00,0.0054
2614.00,0.0054
2613.00,0.0054
2612.00,0.0053
2611.00,0.0053
2610.00,0.0053
2609.00,0.0052
2608.00,0.0052
2607.00,0.0051
2606.00,0.0051
2605.00,0.0050
2604.00,0.0050
2603.00,0.0050
2602.00,0.0050
2601.00,0.0050
2600.00,0.0050
2599.00,0.0050
2598.00,0.0050
2597.00,0.0049
2596.00,0.0049
2595.00,0.0049
2594.00,0.0049
2593.00,0.0049
2592.00,0.0049
2591.00,0.0049
2590.00,0.0049
2589.00,0.0049
2588.00,0.0049
2587.00,0.0048
2586.00,0.0048
2585.00,0.0048
2584.00,0.0047
2583.00,0.0047
2582.00,0.0047
2581.00,0.0047
2580.00,0.0047
2579.00,0.0047
2578.00,0.0046
2577.00,0.0047
2576.00,0.0047
2575.00,0.0048
2574.00,0.0048
2573.00,0.0048
2572.00,0.0048
2571.00,0.0047
2570.00,0.0047
2569.00,0.0046
2568.00,0.0046
2567.00,0.0046
2566.00,0.0046
2565.00,0.0047
2564.00,0.0047
2563.00,0.0047
2562.00,0.0046
2561.00,0.0046
2560.00,0.0045
2559.00,0.0045
2558.00,0.0045
2557.00,0.0045
2556.00,0.0045
2555.00,0.0045
2554.00,0.0045
2553.00,0.0044
2552.00,0.0044
2551.00,0.0044
2550.00,0.0045
2549.00,0.0045
2548.00,0.0045
2547.00,0.0044
2546.00,0.0044
2545.00,0.0045
2544.00,0.0046
2543.00,0.0047
2542.00,0.0047
2541.00,0.0047
2540.00,0.0046
2539.00,0.0046
2538.00,0.0045
2537.00,0.0045
2536.00,0.0044
2535.00,0.0044
2534.00,0.0044
2533.00,0.0044
2532.00,0.0044
2531.00,0.0044
2530.00,0.0044
2529.00,0.0044
2528.00,0.0045
2527.00,0.0045
2526.00,0.0044
2525.00,0.0044
2524.00,0.0043
2523.00,0.0043
2522.00,0.0044
2521.00,0.0044
2520.00,0.0045
2519.00,0.0045
2518.00,0.0045
2517.00,0.0045
2516.00,0.0045
2515.00,0.0045
2514.00,0.0045
2513.00,0.0044
2512.00,0.0044
2511.00,0.0044
2510.00,0.0044
2509.00,0.0045
2508.00,0.0045
2507.00,0.0044
2506.00,0.0044
2505.00,0.0044
2504.00,0.0044
2503.00,0.0044
2502.00,0.0044
2501.00,0.0044
2500.00,0.0044
2499.00,0.0043
2498.00,0.0043
2497.00,0.0043
2496.00,0.0043
2495.00,0.0044
2494.00,0.0044
2493.00,0.0043
2492.00,0.0043
2491.00,0.0043
2490.00,0.0043
2489.00,0.0043
2488.00,0.0042
2487.00,0.0043
2486.00,0.0043
2485.00,0.0043
2484.00,0.0044
2483.00,0.0044
2482.00,0.0044
2481.00,0.0044
2480.00,0.0044
2479.00,0.0044
2478.00,0.0044
2477.00,0.0044
2476.00,0.0044
2475.00,0.0043
2474.00,0.0043
2473.00,0.0043
2472.00,0.0044
2471.00,0.0044
2470.00,0.0044
2469.00,0.0044
2468.00,0.0044
2467.00,0.0044
2466.00,0.0044
2465.00,0.0044
2464.00,0.0044
2463.00,0.0045
2462.00,0.0045
2461.00,0.0046
2460.00,0.0046
2459.00,0.0046
2458.00,0.0046
2457.00,0.0047
2456.00,0.0047
2455.00,0.0047
2454.00,0.0046
2453.00,0.0045
2452.00,0.0045
2451.00,0.0045
2450.00,0.0045
2449.00,0.0046
2448.00,0.0046
2447.00,0.0046
2446.00,0.0046
2445.00,0.0046
2444.00,0.0045
2443.00,0.0045
2442.00,0.0045
2441.00,0.0045
2440.00,0.0045
2439.00,0.0045
2438.00,0.0045
2437.00,0.0046
2436.00,0.0045
2435.00,0.0045
2434.00,0.0044
2433.00,0.0044
2432.00,0.0044
2431.00,0.0043
2430.00,0.0044
2429.00,0.0044
2428.00,0.0044
2427.00,0.0045
2426.00,0.0045
2425.00,0.0045
2424.00,0.0045
2423.00,0.0045
2422.00,0.0045
2421.00,0.0045
2420.00,0.0045
2419.00,0.0045
2418.00,0.0044
2417.00,0.0043
2416.00,0.0043
2415.00,0.0044
2414.00,0.0045
2413.00,0.0046
2412.00,0.0046
2411.00,0.0047
2410.00,0.0046
2409.00,0.0046
2408.00,0.0045
2407.00,0.0044
2406.00,0.0044
2405.00,0.0043
2404.00,0.0043
2403.00,0.0043
2402.00,0.0044
2401.00,0.0044
2400.00,0.0045
2399.00,0.0045
2398.00,0.0045
2397.00,0.0044
2396.00,0.0044
2395.00,0.0044
2394.00,0.0045
2393.00,0.0045
2392.00,0.0046
2391.00,0.0046
2390.00,0.0046
2389.00,0.0045
2388.00,0.0045
2387.00,0.0045
2386.00,0.0045
2385.00,0.0045
2384.00,0.0045
2383.00,0.0045
2382.00,0.0044
2381.00,0.0043
2380.00,0.0043
2379.00,0.0043
2378.00,0.0044
2377.00,0.0045
2376.00,0.0046
2375.00,0.0046
2374.00,0.0046
2373.00,0.0046
2372.00,0.0046
2371.00,0.0046
2370.00,0.0047
2369.00,0.0047
2368.00,0.0047
2367.00,0.0047
2366.00,0.0047
2365.00,0.0048
2364.00,0.0048
2363.00,0.0049
2362.00,0.0049
2361.00,0.0050
2360.00,0.0050
2359.00,0.0049
2358.00,0.0048
2357.00,0.0047
2356.00,0.0047
2355.00,0.0046
2354.00,0.0045
2353.00,0.0046
2352.00,0.0048
2351.00,0.0051
2350.00,0.0053
2349.00,0.0054
2348.00,0.0053
2347.00,0.0053
2346.00,0.0054
2345.00,0.0055
2344.00,0.0055
2343.00,0.0055
2342.00,0.0055
2341.00,0.0055
2340.00,0.0057
2339.00,0.0058
2338.00,0.0059
2337.00,0.0059
2336.00,0.0058
2335.00,0.0058
2334.00,0.0057
2333.00,0.0057
2332.00,0.0057
2331.00,0.0058
2330.00,0.0059
2329.00,0.0061
2328.00,0.0063
2327.00,0.0066
2326.00,0.0070
2325.00,0.0074
2324.00,0.0076
2323.00,0.0078
2322.00,0.0077
2321.00,0.0075
2320.00,0.0074
2319.00,0.0074
2318.00,0.0073
2317.00,0.0072
2316.00,0.0071
2315.00,0.0070
2314.00,0.0070
2313.00,0.0070
2312.00,0.0070
2311.00,0.0070
2310.00,0.0070
2309.00,0.0069
2308.00,0.0069
2307.00,0.0069
2306.00,0.0069
2305.00,0.0069
2304.00,0.0070
2303.00,0.0071
2302.00,0.0071
2301.00,0.0071
2300.00,0.0072
2299.00,0.0072
2298.00,0.0073
2297.00,0.0074
2296.00,0.0074
2295.00,0.0075
2294.00,0.0075
2293.00,0.0076
2292.00,0.0077
2291.00,0.0078
2290.00,0.0079
2289.00,0.0079
2288.00,0.0080
2287.00,0.0081
2286.00,0.0081
2285.00,0.0081
2284.00,0.0080
2283.00,0.0079
2282.00,0.0077
2281.00,0.0076
2280.00,0.0076
2279.00,0.0076
2278.00,0.0076
2277.00,0.0076
2276.00,0.0076
2275.00,0.0077
2274.00,0.0077
2273.00,0.0076
2272.00,0.0075
2271.00,0.0074
2270.00,0.0074
2269.00,0.0074
2268.00,0.0074
2267.00,0.0074
2266.00,0.0074
2265.00,0.0073
2264.00,0.0073
2263.00,0.0071
2262.00,0.0071
2261.00,0.0071
2260.00,0.0072
2259.00,0.0072
2258.00,0.0072
2257.00,0.0071
2256.00,0.0071
2255.00,0.0071
2254.00,0.0070
2253.00,0.0070
2252.00,0.0069
2251.00,0.0070
2250.00,0.0070
2249.00,0.0070
2248.00,0.0071
2247.00,0.0071
2246.00,0.0072
2245.00,0.0072
2244.00,0.0072
2243.00,0.0072
2242.00,0.0071
2241.00,0.0072
2240.00,0.0073
2239.00,0.0075
2238.00,0.0076
2237.00,0.0077
2236.00,0.0076
2235.00,0.0076
2234.00,0.0076
2233.00,0.0075
2232.00,0.0075
2231.00,0.0074
2230.00,0.0075
2229.00,0.0075
2228.00,0.0075
2227.00,0.0074
2226.00,0.0072
2225.00,0.0071
2224.00,0.0071
2223.00,0.0071
2222.00,0.0072
2221.00,0.0073
2220.00,0.0074
2219.00,0.0074
2218.00,0.0073
2217.00,0.0073
2216.00,0.0073
2215.00,0.0074
2214.00,0.0074
2213.00,0.0074
2212.00,0.0074
2211.00,0.0074
2210.00,0.0075
2209.00,0.0077
2208.00,0.0077
2207.00,0.0077
2206.00,0.0075
2205.00,0.0074
2204.00,0.0074
2203.00,0.0076
2202.00,0.0077
2201.00,0.0079
2200.00,0.0081
2199.00,0.0081
2198.00,0.0081
2197.00,0.0081
2196.00,0.0081
2195.00,0.0082
2194.00,0.0082
2193.00,0.0082
2192.00,0.0081
2191.00,0.0081
2190.00,0.0081
2189.00,0.0081
2188.00,0.0082
2187.00,0.0082
2186.00,0.0083
2185.00,0.0084
2184.00,0.0084
2183.00,0.0083
2182.00,0.0081
2181.00,0.0079
2180.00,0.0079
2179.00,0.0080
2178.00,0.0079
2177.00,0.0077
2176.00,0.0074
2175.00,0.0070
2174.00,0.0069
2173.00,0.0070
2172.00,0.0074
2171.00,0.0079
2170.00,0.0083
2169.00,0.0086
2168.00,0.0087
2167.00,0.0088
2166.00,0.0088
2165.00,0.0088
2164.00,0.0086
2163.00,0.0086
2162.00,0.0086
2161.00,0.0086
2160.00,0.0080
2159.00,0.0066
2158.00,0.0051
2157.00,0.0041
2156.00,0.0038
2155.00,0.0039
2154.00,0.0042
2153.00,0.0047
2152.00,0.0054
2151.00,0.0059
2150.00,0.0060
2149.00,0.0058
2148.00,0.0055
2147.00,0.0053
2146.00,0.0053
2145.00,0.0055
2144.00,0.0057
2143.00,0.0058
2142.00,0.0059
2141.00,0.0061
2140.00,0.0062
2139.00,0.0063
2138.00,0.0063
2137.00,0.0064
2136.00,0.0065
2135.00,0.0065
2134.00,0.0064
2133.00,0.0065
2132.00,0.0066
2131.00,0.0067
2130.00,0.0069
2129.00,0.0071
2128.00,0.0075
2127.00,0.0077
2126.00,0.0079
2125.00,0.0079
2124.00,0.0080
2123.00,0.0081
2122.00,0.0082
2121.00,0.0083
2120.00,0.0086
2119.00,0.0089
2118.00,0.0092
2117.00,0.0094
2116.00,0.0096
2115.00,0.0097
2114.00,0.0097
2113.00,0.0096
2112.00,0.0096
2111.00,0.0095
2110.00,0.0095
2109.00,0.0096
2108.00,0.0098
2107.00,0.0099
2106.00,0.0100
2105.00,0.0100
2104.00,0.0099
2103.00,0.0097
2102.00,0.0095
2101.00,0.0094
2100.00,0.0095
2099.00,0.0096
2098.00,0.0096
2097.00,0.0095
2096.00,0.0093
2095.00,0.0091
2094.00,0.0090
2093.00,0.0091
2092.00,0.0093
2091.00,0.0094
2090.00,0.0095
2089.00,0.0095
2088.00,0.0096
2087.00,0.0097
2086.00,0.0097
2085.00,0.0097
2084.00,0.0097
2083.00,0.0097
2082.00,0.0097
2081.00,0.0097
2080.00,0.0097
2079.00,0.0096
2078.00,0.0094
2077.00,0.0093
2076.00,0.0093
2075.00,0.0094
2074.00,0.0093
2073.00,0.0092
2072.00,0.0090
2071.00,0.0088
2070.00,0.0087
2069.00,0.0086
2068.00,0.0087
2067.00,0.0088
2066.00,0.0089
2065.00,0.0090
2064.00,0.0089
2063.00,0.0088
2062.00,0.0086
2061.00,0.0087
2060.00,0.0089
2059.00,0.0092
2058.00,0.0095
2057.00,0.0098
2056.00,0.0099
2055.00,0.0098
2054.00,0.0096
2053.00,0.0097
2052.00,0.0101
2051.00,0.0105
2050.00,0.0106
2049.00,0.0103
2048.00,0.0098
2047.00,0.0094
2046.00,0.0092
2045.00,0.0091
2044.00,0.0090
2043.00,0.0090
2042.00,0.0089
2041.00,0.0088
2040.00,0.0087
2039.00,0.0087
2038.00,0.0086
2037.00,0.0086
2036.00,0.0086
2035.00,0.0086
2034.00,0.0084
2033.00,0.0082
2032.00,0.0080
2031.00,0.0078
2030.00,0.0077
2029.00,0.0076
2028.00,0.0074
2027.00,0.0073
2026.00,0.0072
2025.00,0.0073
2024.00,0.0074
2023.00,0.0074
2022.00,0.0074
2021.00,0.0074
2020.00,0.0073
2019.00,0.0072
2018.00,0.0070
2017.00,0.0067
2016.00,0.0066
2015.00,0.0065
2014.00,0.0065
2013.00,0.0065
2012.00,0.0065
2011.00,0.0064
2010.00,0.0063
2009.00,0.0064
2008.00,0.0066
2007.00,0.0066
2006.00,0.0064
2005.00,0.0063
2004.00,0.0064
2003.00,0.0066
2002.00,0.0068
2001.00,0.0069
2000.00,0.0070
1999.00,0.0072
1998.00,0.0073
1997.00,0.0074
1996.00,0.0074
1995.00,0.0074
1994.00,0.0074
1993.00,0.0076
1992.00,0.0079
1991.00,0.0079
1990.00,0.0078
1989.00,0.0076
1988.00,0.0074
1987.00,0.0072
1986.00,0.0072
1985.00,0.0074
1984.00,0.0079
1983.00,0.0085
1982.00,0.0090
1981.00,0.0092
1980.00,0.0092
1979.00,0.0088
1978.00,0.0079
1977.00,0.0069
1976.00,0.0060
1975.00,0.0055
1974.00,0.0052
1973.00,0.0051
1972.00,0.0053
1971.00,0.0056
1970.00,0.0057
1969.00,0.0058
1968.00,0.0057
1967.00,0.0055
1966.00,0.0053
1965.00,0.0053
1964.00,0.0054
1963.00,0.0054
1962.00,0.0053
1961.00,0.0052
1960.00,0.0050
1959.00,0.0050
1958.00,0.0050
1957.00,0.0052
1956.00,0.0056
1955.00,0.0058
1954.00,0.0058
1953.00,0.0057
1952.00,0.0056
1951.00,0.0056
1950.00,0.0056
1949.00,0.0055
1948.00,0.0055
1947.00,0.0055
1946.00,0.0056
1945.00,0.0058
1944.00,0.0059
1943.00,0.0059
1942.00,0.0057
1941.00,0.0055
1940.00,0.0055
1939.00,0.0055
1938.00,0.0055
1937.00,0.0055
1936.00,0.0055
1935.00,0.0056
1934.00,0.0057
1933.00,0.0058
1932.00,0.0059
1931.00,0.0059
1930.00,0.0058
1929.00,0.0057
1928.00,0.0056
1927.00,0.0056
1926.00,0.0056
1925.00,0.0056
1924.00,0.0056
1923.00,0.0057
1922.00,0.0058
1921.00,0.0059
1920.00,0.0059
1919.00,0.0059
1918.00,0.0058
1917.00,0.0058
1916.00,0.0058
1915.00,0.0058
1914.00,0.0058
1913.00,0.0058
1912.00,0.0058
1911.00,0.0059
1910.00,0.0059
1909.00,0.0060
1908.00,0.0061
1907.00,0.0061
1906.00,0.0059
1905.00,0.0058
1904.00,0.0058
1903.00,0.0058
1902.00,0.0057
1901.00,0.0057
1900.00,0.0058
1899.00,0.0059
1898.00,0.0059
1897.00,0.0059
1896.00,0.0058
1895.00,0.0058
1894.00,0.0058
1893.00,0.0058
1892.00,0.0059
1891.00,0.0060
1890.00,0.0060
1889.00,0.0060
1888.00,0.0060
1887.00,0.0060
1886.00,0.0060
1885.00,0.0060
1884.00,0.0060
1883.00,0.0060
1882.00,0.0060
1881.00,0.0060
1880.00,0.0060
1879.00,0.0060
1878.00,0.0060
1877.00,0.0060
1876.00,0.0060
1875.00,0.0059
1874.00,0.0059
1873.00,0.0059
1872.00,0.0060
1871.00,0.0060
1870.00,0.0059
1869.00,0.0058
1868.00,0.0057
1867.00,0.0058
1866.00,0.0059
1865.00,0.0060
1864.00,0.0061
1863.00,0.0062
1862.00,0.0062
1861.00,0.0061
1860.00,0.0062
1859.00,0.0062
1858.00,0.0062
1857.00,0.0062
1856.00,0.0062
1855.00,0.0062
1854.00,0.0062
1853.00,0.0062
1852.00,0.0062
1851.00,0.0061
1850.00,0.0061
1849.00,0.0061
1848.00,0.0062
1847.00,0.0063
1846.00,0.0064
1845.00,0.0063
1844.00,0.0062
1843.00,0.0061
1842.00,0.0061
1841.00,0.0062
1840.00,0.0063
1839.00,0.0063
1838.00,0.0062
1837.00,0.0062
1836.00,0.0062
1835.00,0.0062
1834.00,0.0063
1833.00,0.0064
1832.00,0.0065
1831.00,0.0066
1830.00,0.0066
1829.00,0.0066
1828.00,0.0066
1827.00,0.0066
1826.00,0.0065
1825.00,0.0066
1824.00,0.0066
1823.00,0.0067
1822.00,0.0068
1821.00,0.0067
1820.00,0.0067
1819.00,0.0066
1818.00,0.0065
1817.00,0.0064
1816.00,0.0065
1815.00,0.0066
1814.00,0.0067
1813.00,0.0068
1812.00,0.0069
1811.00,0.0070
1810.00,0.0070
1809.00,0.0071
1808.00,0.0072
1807.00,0.0072
1806.00,0.0072
1805.00,0.0072
1804.00,0.0073
1803.00,0.0074
1802.00,0.0075
1801.00,0.0076
1800.00,0.0076
1799.00,0.0077
1798.00,0.0077
1797.00,0.0077
1796.00,0.0078
1795.00,0.0078
1794.00,0.0079
1793.00,0.0079
1792.00,0.0080
1791.00,0.0080
1790.00,0.0080
1789.00,0.0081
1788.00,0.0081
1787.00,0.0081
1786.00,0.0080
1785.00,0.0080
1784.00,0.0081
1783.00,0.0082
1782.00,0.0082
1781.00,0.0083
1780.00,0.0084
1779.00,0.0085
1778.00,0.0085
1777.00,0.0085
1776.00,0.0086
1775.00,0.0087
1774.00,0.0088
1773.00,0.0088
1772.00,0.0089
1771.00,0.0089
1770.00,0.0090
1769.00,0.0091
1768.00,0.0092
1767.00,0.0093
1766.00,0.0093
1765.00,0.0094
1764.00,0.0094
1763.00,0.0095
1762.00,0.0095
1761.00,0.0096
1760.00,0.0097
1759.00,0.0098
1758.00,0.0099
1757.00,0.0100
1756.00,0.0101
1755.00,0.0102
1754.00,0.0103
1753.00,0.0103
1752.00,0.0105
1751.00,0.0106
1750.00,0.0108
1749.00,0.0109
1748.00,0.0111
1747.00,0.0112
1746.00,0.0113
1745.00,0.0114
1744.00,0.0116
1743.00,0.0118
1742.00,0.0119
1741.00,0.0120
1740.00,0.0122
1739.00,0.0123
1738.00,0.0124
1737.00,0.0125
1736.00,0.0126
1735.00,0.0127
1734.00,0.0128
1733.00,0.0131
1732.00,0.0134
1731.00,0.0138
1730.00,0.0140
1729.00,0.0142
1728.00,0.0144
1727.00,0.0146
1726.00,0.0147
1725.00,0.0149
1724.00,0.0152
1723.00,0.0155
1722.00,0.0157
1721.00,0.0160
1720.00,0.0162
1719.00,0.0165
1718.00,0.0167
1717.00,0.0172
1716.00,0.0177
1715.00,0.0182
1714.00,0.0185
1713.00,0.0189
1712.00,0.0192
1711.00,0.0196
1710.00,0.0199
1709.00,0.0203
1708.00,0.0207
1707.00,0.0212
1706.00,0.0216
1705.00,0.0222
1704.00,0.0227
1703.00,0.0232
1702.00,0.0237
1701.00,0.0242
1700.00,0.0251
1699.00,0.0259
1698.00,0.0265
1697.00,0.0271
1696.00,0.0279
1695.00,0.0288
1694.00,0.0296
1693.00,0.0303
1692.00,0.0309
1691.00,0.0316
1690.00,0.0323
1689.00,0.0332
1688.00,0.0339
1687.00,0.0346
1686.00,0.0353
1685.00,0.0363
1684.00,0.0379
1683.00,0.0395
1682.00,0.0407
1681.00,0.0416
1680.00,0.0425
1679.00,0.0434
1678.00,0.0442
1677.00,0.0450
1676.00,0.0461
1675.00,0.0476
1674.00,0.0490
1673.00,0.0502
1672.00,0.0512
1671.00,0.0522
1670.00,0.0535
1669.00,0.0551
1668.00,0.0566
1667.00,0.0578
1666.00,0.0587
1665.00,0.0595
1664.00,0.0606
1663.00,0.0619
1662.00,0.0633
1661.00,0.0647
1660.00,0.0659
1659.00,0.0669
1658.00,0.0678
1657.00,0.0684
1656.00,0.0688
1655.00,0.0693
1654.00,0.0705
1653.00,0.0730
1652.00,0.0756
1651.00,0.0769
1650.00,0.0771
1649.00,0.0772
1648.00,0.0775
1647.00,0.0786
1646.00,0.0799
1645.00,0.0809
1644.00,0.0816
1643.00,0.0819
1642.00,0.0821
1641.00,0.0823
1640.00,0.0824
1639.00,0.0824
1638.00,0.0823
1637.00,0.0823
1636.00,0.0827
1635.00,0.0834
1634.00,0.0837
1633.00,0.0836
1632.00,0.0831
1631.00,0.0824
1630.00,0.0817
1629.00,0.0810
1628.00,0.0803
1627.00,0.0797
1626.00,0.0789
1625.00,0.0779
1624.00,0.0768
1623.00,0.0757
1622.00,0.0747
1621.00,0.0736
1620.00,0.0724
1619.00,0.0711
1618.00,0.0696
1617.00,0.0681
1616.00,0.0669
1615.00,0.0658
1614.00,0.0646
1613.00,0.0633
1612.00,0.0619
1611.00,0.0605
1610.00,0.0592
1609.00,0.0579
1608.00,0.0566
1607.00,0.0554
1606.00,0.0543
1605.00,0.0531
1604.00,0.0520
1603.00,0.0509
1602.00,0.0499
1601.00,0.0489
1600.00,0.0479
1599.00,0.0469
1598.00,0.0461
1597.00,0.0452
1596.00,0.0444
1595.00,0.0435
1594.00,0.0428
1593.00,0.0420
1592.00,0.0413
1591.00,0.0407
1590.00,0.0401
1589.00,0.0395
1588.00,0.0389
1587.00,0.0383
1586.00,0.0378
1585.00,0.0373
1584.00,0.0368
1583.00,0.0364
1582.00,0.0360
1581.00,0.0356
1580.00,0.0352
1579.00,0.0348
1578.00,0.0344
1577.00,0.0339
1576.00,0.0336
1575.00,0.0334
1574.00,0.0332
1573.00,0.0330
1572.00,0.0327
1571.00,0.0323
1570.00,0.0320
1569.00,0.0317
1568.00,0.0315
1567.00,0.0313
1566.00,0.0311
1565.00,0.0308
1564.00,0.0306
1563.00,0.0304
1562.00,0.0302
1561.00,0.0300
1560.00,0.0297
1559.00,0.0295
1558.00,0.0295
1557.00,0.0295
1556.00,0.0293
1555.00,0.0291
1554.00,0.0289
1553.00,0.0287
1552.00,0.0286
1551.00,0.0284
1550.00,0.0282
1549.00,0.0281
1548.00,0.0280
1547.00,0.0278
1546.00,0.0277
1545.00,0.0276
1544.00,0.0275
1543.00,0.0274
1542.00,0.0272
1541.00,0.0269
1540.00,0.0266
1539.00,0.0264
1538.00,0.0263
1537.00,0.0262
1536.00,0.0261
1535.00,0.0259
1534.00,0.0257
1533.00,0.0254
1532.00,0.0252
1531.00,0.0251
1530.00,0.0250
1529.00,0.0248
1528.00,0.0247
1527.00,0.0245
1526.00,0.0245
1525.00,0.0244
1524.00,0.0243
1523.00,0.0241
1522.00,0.0239
1521.00,0.0238
1520.00,0.0236
1519.00,0.0236
1518.00,0.0235
1517.00,0.0234
1516.00,0.0232
1515.00,0.0231
1514.00,0.0229
1513.00,0.0228
1512.00,0.0227
1511.00,0.0227
1510.00,0.0226
1509.00,0.0226
1508.00,0.0226
1507.00,0.0225
1506.00,0.0223
1505.00,0.0222
1504.00,0.0222
1503.00,0.0222
1502.00,0.0221
1501.00,0.0221
1500.00,0.0220
1499.00,0.0220
1498.00,0.0220
1497.00,0.0219
1496.00,0.0219
1495.00,0.0219
1494.00,0.0220
1493.00,0.0220
1492.00,0.0220
1491.00,0.0220
1490.00,0.0220
1489.00,0.0222
1488.00,0.0223
1487.00,0.0225
1486.00,0.0226
1485.00,0.0227
1484.00,0.0228
1483.00,0.0229
1482.00,0.0231
1481.00,0.0232
1480.00,0.0233
1479.00,0.0235
1478.00,0.0237
1477.00,0.0239
1476.00,0.0241
1475.00,0.0243
1474.00,0.0244
1473.00,0.0245
1472.00,0.0245
1471.00,0.0246
1470.00,0.0247
1469.00,0.0249
1468.00,0.0250
1467.00,0.0251
1466.00,0.0252
1465.00,0.0252
1464.00,0.0252
1463.00,0.0253
1462.00,0.0254
1461.00,0.0256
1460.00,0.0257
1459.00,0.0257
1458.00,0.0257
1457.00,0.0257
1456.00,0.0258
1455.00,0.0259
1454.00,0.0261
1453.00,0.0262
1452.00,0.0262
1451.00,0.0263
1450.00,0.0263
1449.00,0.0264
1448.00,0.0264
1447.00,0.0264
1446.00,0.0265
1445.00,0.0266
1444.00,0.0267
1443.00,0.0268
1442.00,0.0269
1441.00,0.0270
1440.00,0.0271
1439.00,0.0273
1438.00,0.0274
1437.00,0.0275
1436.00,0.0276
1435.00,0.0277
1434.00,0.0279
1433.00,0.0280
1432.00,0.0281
1431.00,0.0282
1430.00,0.0283
1429.00,0.0284
1428.00,0.0285
1427.00,0.0287
1426.00,0.0288
1425.00,0.0289
1424.00,0.0290
1423.00,0.0290
1422.00,0.0291
1421.00,0.0292
1420.00,0.0293
1419.00,0.0293
1418.00,0.0293
1417.00,0.0294
1416.00,0.0295
1415.00,0.0296
1414.00,0.0297
1413.00,0.0298
1412.00,0.0298
1411.00,0.0299
1410.00,0.0299
1409.00,0.0300
1408.00,0.0301
1407.00,0.0301
1406.00,0.0301
1405.00,0.0301
1404.00,0.0301
1403.00,0.0301
1402.00,0.0301
1401.00,0.0300
1400.00,0.0300
1399.00,0.0298
1398.00,0.0297
1397.00,0.0297
1396.00,0.0296
1395.00,0.0295
1394.00,0.0295
1393.00,0.0295
1392.00,0.0296
1391.00,0.0297
1390.00,0.0298
1389.00,0.0300
1388.00,0.0302
1387.00,0.0304
1386.00,0.0307
1385.00,0.0310
1384.00,0.0313
1383.00,0.0316
1382.00,0.0319
1381.00,0.0322
1380.00,0.0324
1379.00,0.0326
1378.00,0.0327
1377.00,0.0328
1376.00,0.0329
1375.00,0.0329
1374.00,0.0329
1373.00,0.0328
1372.00,0.0328
1371.00,0.0327
1370.00,0.0326
1369.00,0.0324
1368.00,0.0323
1367.00,0.0321
1366.00,0.0320
1365.00,0.0319
1364.00,0.0318
1363.00,0.0317
1362.00,0.0317
1361.00,0.0316
1360.00,0.0317
1359.00,0.0317
1358.00,0.0317
1357.00,0.0317
1356.00,0.0317
1355.00,0.0317
1354.00,0.0317
1353.00,0.0316
1352.00,0.0315
1351.00,0.0313
1350.00,0.0311
1349.00,0.0310
1348.00,0.0308
1347.00,0.0306
1346.00,0.0304
1345.00,0.0302
1344.00,0.0300
1343.00,0.0298
1342.00,0.0296
1341.00,0.0294
1340.00,0.0293
1339.00,0.0292
1338.00,0.0291
1337.00,0.0291
1336.00,0.0291
1335.00,0.0291
1334.00,0.0290
1333.00,0.0290
1332.00,0.0289
1331.00,0.0289
1330.00,0.0289
1329.00,0.0289
1328.00,0.0289
1327.00,0.0289
1326.00,0.0289
1325.00,0.0290
1324.00,0.0291
1323.00,0.0292
1322.00,0.0292
1321.00,0.0293
1320.00,0.0293
1319.00,0.0294
1318.00,0.0294
1317.00,0.0295
1316.00,0.0296
1315.00,0.0296
1314.00,0.0296
1313.00,0.0297
1312.00,0.0298
1311.00,0.0299
1310.00,0.0299
1309.00,0.0300
1308.00,0.0301
1307.00,0.0303
1306.00,0.0304
1305.00,0.0305
1304.00,0.0307
1303.00,0.0310
1302.00,0.0313
1301.00,0.0315
1300.00,0.0318
1299.00,0.0321
1298.00,0.0325
1297.00,0.0330
1296.00,0.0335
1295.00,0.0340
1294.00,0.0345
1293.00,0.0351
1292.00,0.0357
1291.00,0.0364
1290.00,0.0371
1289.00,0.0379
1288.00,0.0386
1287.00,0.0394
1286.00,0.0402
1285.00,0.0411
1284.00,0.0421
1283.00,0.0431
1282.00,0.0442
1281.00,0.0453
1280.00,0.0464
1279.00,0.0476
1278.00,0.0488
1277.00,0.0500
1276.00,0.0513
1275.00,0.0526
1274.00,0.0538
1273.00,0.0551
1272.00,0.0564
1271.00,0.0577
1270.00,0.0589
1269.00,0.0601
1268.00,0.0613
1267.00,0.0623
1266.00,0.0634
1265.00,0.0643
1264.00,0.0652
1263.00,0.0661
1262.00,0.0669
1261.00,0.0676
1260.00,0.0682
1259.00,0.0688
1258.00,0.0693
1257.00,0.0697
1256.00,0.0702
1255.00,0.0706
1254.00,0.0709
1253.00,0.0713
1252.00,0.0715
1251.00,0.0717
1250.00,0.0719
1249.00,0.0721
1248.00,0.0723
1247.00,0.0724
1246.00,0.0726
1245.00,0.0728
1244.00,0.0731
1243.00,0.0733
1242.00,0.0736
1241.00,0.0739
1240.00,0.0742
1239.00,0.0745
1238.00,0.0750
1237.00,0.0754
1236.00,0.0759
1235.00,0.0762
1234.00,0.0766
1233.00,0.0768
1232.00,0.0771
1231.00,0.0774
1230.00,0.0776
1229.00,0.0777
1228.00,0.0778
1227.00,0.0777
1226.00,0.0776
1225.00,0.0775
1224.00,0.0773
1223.00,0.0771
1222.00,0.0768
1221.00,0.0764
1220.00,0.0759
1219.00,0.0754
1218.00,0.0749
1217.00,0.0742
1216.00,0.0735
1215.00,0.0727
1214.00,0.0718
1213.00,0.0710
1212.00,0.0700
1211.00,0.0690
1210.00,0.0680
1209.00,0.0670
1208.00,0.0659
1207.00,0.0648
1206.00,0.0637
1205.00,0.0626
1204.00,0.0614
1203.00,0.0604
1202.00,0.0594
1201.00,0.0586
1200.00,0.0578
1199.00,0.0571
1198.00,0.0565
1197.00,0.0561
1196.00,0.0558
1195.00,0.0556
1194.00,0.0554
1193.00,0.0553
1192.00,0.0551
1191.00,0.0549
1190.00,0.0546
1189.00,0.0541
1188.00,0.0535
1187.00,0.0528
1186.00,0.0522
1185.00,0.0516
1184.00,0.0511
1183.00,0.0507
1182.00,0.0505
1181.00,0.0504
1180.00,0.0504
1179.00,0.0504
1178.00,0.0506
1177.00,0.0509
1176.00,0.0512
1175.00,0.0516
1174.00,0.0521
1173.00,0.0527
1172.00,0.0535
1171.00,0.0544
1170.00,0.0553
1169.00,0.0562
1168.00,0.0572
1167.00,0.0582
1166.00,0.0593
1165.00,0.0605
1164.00,0.0616
1163.00,0.0627
1162.00,0.0636
1161.00,0.0645
1160.00,0.0651
1159.00,0.0656
1158.00,0.0659
1157.00,0.0661
1156.00,0.0662
1155.00,0.0661
1154.00,0.0659
1153.00,0.0655
1152.00,0.0651
1151.00,0.0646
1150.00,0.0640
1149.00,0.0633
1148.00,0.0626
1147.00,0.0620
1146.00,0.0613
1145.00,0.0607
1144.00,0.0601
1143.00,0.0596
1142.00,0.0592
1141.00,0.0590
1140.00,0.0590
1139.00,0.0591
1138.00,0.0594
1137.00,0.0601
1136.00,0.0610
1135.00,0.0621
1134.00,0.0635
1133.00,0.0649
1132.00,0.0665
1131.00,0.0680
1130.00,0.0694
1129.00,0.0706
1128.00,0.0715
1127.00,0.0721
1126.00,0.0724
1125.00,0.0726
1124.00,0.0726
1123.00,0.0724
1122.00,0.0721
1121.00,0.0717
1120.00,0.0714
1119.00,0.0710
1118.00,0.0707
1117.00,0.0704
1116.00,0.0701
1115.00,0.0699
1114.00,0.0697
1113.00,0.0695
1112.00,0.0693
1111.00,0.0692
1110.00,0.0691
1109.00,0.0691
1108.00,0.0691
1107.00,0.0692
1106.00,0.0694
1105.00,0.0699
1104.00,0.0705
1103.00,0.0713
1102.00,0.0722
1101.00,0.0731
1100.00,0.0742
1099.00,0.0753
1098.00,0.0765
1097.00,0.0776
1096.00,0.0786
1095.00,0.0794
1094.00,0.0802
1093.00,0.0809
1092.00,0.0816
1091.00,0.0824
1090.00,0.0832
1089.00,0.0842
1088.00,0.0852
1087.00,0.0863
1086.00,0.0873
1085.00,0.0885
1084.00,0.0897
1083.00,0.0910
1082.00,0.0924
1081.00,0.0940
1080.00,0.0957
1079.00,0.0974
1078.00,0.0993
1077.00,0.1011
1076.00,0.1028
1075.00,0.1044
1074.00,0.1060
1073.00,0.1076
1072.00,0.1092
1071.00,0.1106
1070.00,0.1119
1069.00,0.1130
1068.00,0.1138
1067.00,0.1144
1066.00,0.1144
1065.00,0.1139
1064.00,0.1130
1063.00,0.1116
1062.00,0.1100
1061.00,0.1084
1060.00,0.1069
1059.00,0.1056
1058.00,0.1046
1057.00,0.1039
1056.00,0.1035
1055.00,0.1033
1054.00,0.1033
1053.00,0.1034
1052.00,0.1036
1051.00,0.1039
1050.00,0.1042
1049.00,0.1047
1048.00,0.1055
1047.00,0.1064
1046.00,0.1074
1045.00,0.1085
1044.00,0.1096
1043.00,0.1105
1042.00,0.1110
1041.00,0.1112
1040.00,0.1110
1039.00,0.1106
1038.00,0.1099
1037.00,0.1092
1036.00,0.1085
1035.00,0.1079
1034.00,0.1073
1033.00,0.1070
1032.00,0.1068
1031.00,0.1067
1030.00,0.1066
1029.00,0.1063
1028.00,0.1056
1027.00,0.1046
1026.00,0.1033
1025.00,0.1017
1024.00,0.0997
1023.00,0.0975
1022.00,0.0951
1021.00,0.0927
1020.00,0.0903
1019.00,0.0881
1018.00,0.0860
1017.00,0.0841
1016.00,0.0825
1015.00,0.0810
1014.00,0.0797
1013.00,0.0786
1012.00,0.0777
1011.00,0.0770
1010.00,0.0766
1009.00,0.0764
1008.00,0.0764
1007.00,0.0765
1006.00,0.0766
1005.00,0.0765
1004.00,0.0762
1003.00,0.0756
1002.00,0.0746
1001.00,0.0733
1000.00,0.0718
999.00,0.0701
998.00,0.0685
997.00,0.0670
996.00,0.0657
995.00,0.0647
994.00,0.0640
993.00,0.0635
992.00,0.0632
991.00,0.0629
990.00,0.0627
989.00,0.0624
988.00,0.0621
987.00,0.0616
986.00,0.0611
985.00,0.0605
984.00,0.0600
983.00,0.0595
982.00,0.0590
981.00,0.0587
980.00,0.0586
979.00,0.0586
978.00,0.0587
977.00,0.0589
976.00,0.0592
975.00,0.0595
974.00,0.0600
973.00,0.0604
972.00,0.0609
971.00,0.0613
970.00,0.0615
969.00,0.0613
968.00,0.0607
967.00,0.0597
966.00,0.0583
965.00,0.0567
964.00,0.0551
963.00,0.0536
962.00,0.0522
961.00,0.0511
960.00,0.0501
959.00,0.0494
958.00,0.0489
957.00,0.0486
956.00,0.0484
955.00,0.0484
954.00,0.0486
953.00,0.0489
952.00,0.0492
951.00,0.0497
950.00,0.0502
949.00,0.0509
948.00,0.0516
947.00,0.0525
946.00,0.0534
945.00,0.0544
944.00,0.0556
943.00,0.0568
942.00,0.0583
941.00,0.0602
940.00,0.0624
939.00,0.0649
938.00,0.0675
937.00,0.0702
936.00,0.0729
935.00,0.0755
934.00,0.0780
933.00,0.0802
932.00,0.0822
931.00,0.0838
930.00,0.0850
929.00,0.0861
928.00,0.0869
927.00,0.0876
926.00,0.0880
925.00,0.0882
924.00,0.0882
923.00,0.0880
922.00,0.0877
921.00,0.0873
920.00,0.0868
919.00,0.0862
918.00,0.0854
917.00,0.0846
916.00,0.0838
915.00,0.0828
914.00,0.0817
913.00,0.0805
912.00,0.0794
911.00,0.0782
910.00,0.0770
909.00,0.0759
908.00,0.0749
907.00,0.0740
906.00,0.0731
905.00,0.0724
904.00,0.0719
903.00,0.0714
902.00,0.0710
901.00,0.0707
900.00,0.0706
899.00,0.0705
898.00,0.0705
897.00,0.0704
896.00,0.0704
895.00,0.0704
894.00,0.0705
893.00,0.0706
892.00,0.0708
891.00,0.0709
890.00,0.0709
889.00,0.0707
888.00,0.0704
887.00,0.0698
886.00,0.0691
885.00,0.0683
884.00,0.0674
883.00,0.0664
882.00,0.0654
881.00,0.0644
880.00,0.0637
879.00,0.0633
878.00,0.0632
877.00,0.0635
876.00,0.0638
875.00,0.0642
874.00,0.0644
873.00,0.0646
872.00,0.0647
871.00,0.0647
870.00,0.0646
869.00,0.0643
868.00,0.0641
867.00,0.0641
866.00,0.0642
865.00,0.0646
864.00,0.0651
863.00,0.0658
862.00,0.0665
861.00,0.0674
860.00,0.0685
859.00,0.0697
858.00,0.0711
857.00,0.0726
856.00,0.0743
855.00,0.0760
854.00,0.0778
853.00,0.0797
852.00,0.0815
851.00,0.0832
850.00,0.0848
849.00,0.0862
848.00,0.0874
847.00,0.0883
846.00,0.0888
845.00,0.0888
844.00,0.0884
843.00,0.0877
842.00,0.0867
841.00,0.0854
840.00,0.0840
839.00,0.0825
838.00,0.0810
837.00,0.0795
836.00,0.0782
835.00,0.0770
834.00,0.0758
833.00,0.0749
832.00,0.0741
831.00,0.0735
830.00,0.0731
829.00,0.0727
828.00,0.0725
827.00,0.0722
826.00,0.0720
825.00,0.0718
824.00,0.0719
823.00,0.0720
822.00,0.0721
821.00,0.0721
820.00,0.0723
819.00,0.0725
818.00,0.0727
817.00,0.0730
816.00,0.0733
815.00,0.0737
814.00,0.0741
813.00,0.0746
812.00,0.0751
811.00,0.0757
810.00,0.0763
809.00,0.0771
808.00,0.0779
807.00,0.0787
806.00,0.0795
805.00,0.0802
804.00,0.0808
803.00,0.0814
802.00,0.0818
801.00,0.0822
800.00,0.0825
799.00,0.0827
798.00,0.0828
797.00,0.0829
796.00,0.0830
795.00,0.0831
794.00,0.0832
793.00,0.0831
792.00,0.0830
791.00,0.0830
790.00,0.0830
789.00,0.0831
788.00,0.0833
787.00,0.0835
786.00,0.0838
785.00,0.0841
784.00,0.0846
783.00,0.0850
782.00,0.0856
781.00,0.0862
780.00,0.0869
779.00,0.0876
778.00,0.0884
777.00,0.0891
776.00,0.0899
775.00,0.0906
774.00,0.0911
773.00,0.0915
772.00,0.0917
771.00,0.0918
770.00,0.0918
769.00,0.0917
768.00,0.0917
767.00,0.0916
766.00,0.0916
765.00,0.0916
764.00,0.0918
763.00,0.0920
762.00,0.0923
761.00,0.0926
760.00,0.0930
759.00,0.0933
758.00,0.0937
757.00,0.0942
756.00,0.0947
755.00,0.0955
754.00,0.0963
753.00,0.0972
752.00,0.0983
751.00,0.0995
750.00,0.1008
749.00,0.1021
748.00,0.1033
747.00,0.1045
746.00,0.1057
745.00,0.1069
744.00,0.1081
743.00,0.1092
742.00,0.1101
741.00,0.1110
740.00,0.1119
739.00,0.1127
738.00,0.1134
737.00,0.1142
736.00,0.1151
735.00,0.1158
734.00,0.1163
733.00,0.1167
732.00,0.1171
731.00,0.1175
730.00,0.1178
729.00,0.1183
728.00,0.1187
727.00,0.1192
726.00,0.1197
725.00,0.1201
724.00,0.1206
723.00,0.1210
722.00,0.1212
721.00,0.1213
720.00,0.1214
719.00,0.1215
718.00,0.1216
717.00,0.1218
716.00,0.1222
715.00,0.1227
714.00,0.1233
713.00,0.1242
712.00,0.1252
711.00,0.1262
710.00,0.1273
709.00,0.1283
708.00,0.1294
707.00,0.1305
706.00,0.1316
705.00,0.1326
704.00,0.1336
703.00,0.1344
702.00,0.1349
701.00,0.1352
700.00,0.1353
699.00,0.1351
698.00,0.1348
697.00,0.1344
696.00,0.1340
695.00,0.1335
694.00,0.1329
693.00,0.1323
692.00,0.1318
691.00,0.1315
690.00,0.1311
689.00,0.1307
688.00,0.1304
687.00,0.1301
686.00,0.1299
685.00,0.1297
684.00,0.1297
683.00,0.1296
682.00,0.1296
681.00,0.1297
680.00,0.1300
679.00,0.1302
678.00,0.1304
677.00,0.1307
676.00,0.1311
675.00,0.1316
674.00,0.1321
673.00,0.1326
672.00,0.1330
671.00,0.1332
670.00,0.1331
669.00,0.1333
668.00,0.1340
667.00,0.1351
666.00,0.1358
665.00,0.1360
664.00,0.1363
663.00,0.1366
662.00,0.1369
661.00,0.1372
660.00,0.1374
659.00,0.1376
658.00,0.1378
657.00,0.1379
656.00,0.1381
655.00,0.1383
654.00,0.1385
653.00,0.1388
652.00,0.1392
651.00,0.1396
650.00,0.1400
649.00,0.1404
648.00,0.1408
647.00,0.1412
646.00,0.1415
645.00,0.1418
644.00,0.1422
643.00,0.1425
642.00,0.1428
641.00,0.1432
640.00,0.1436
639.00,0.1441
638.00,0.1446
637.00,0.1451
636.00,0.1457
635.00,0.1462
634.00,0.1467
633.00,0.1473
632.00,0.1482
631.00,0.1493
630.00,0.1504
629.00,0.1514
628.00,0.1525
627.00,0.1535
626.00,0.1545
625.00,0.1556
624.00,0.1568
623.00,0.1578
622.00,0.1587
621.00,0.1596
620.00,0.1605
619.00,0.1614
618.00,0.1622
617.00,0.1631
616.00,0.1642
615.00,0.1653
614.00,0.1661
613.00,0.1668
612.00,0.1674
611.00,0.1679
610.00,0.1684
609.00,0.1689
608.00,0.1696
607.00,0.1703
606.00,0.1710
605.00,0.1715
604.00,0.1720
603.00,0.1722
602.00,0.1722
601.00,0.1722
600.00,0.1724
599.00,0.1727
598.00,0.1730
597.00,0.1733
596.00,0.1738
595.00,0.1743
594.00,0.1748
593.00,0.1755
592.00,0.1763
591.00,0.1771
590.00,0.1778
589.00,0.1787
588.00,0.1798
587.00,0.1810
586.00,0.1819
585.00,0.1826
584.00,0.1834
583.00,0.1843
582.00,0.1852
581.00,0.1861
580.00,0.1870
579.00,0.1879
578.00,0.1887
577.00,0.1895
576.00,0.1903
575.00,0.1909
574.00,0.1912
573.00,0.1915
572.00,0.1920
571.00,0.1926
570.00,0.1930
569.00,0.1932
568.00,0.1935
567.00,0.1939
566.00,0.1942
565.00,0.1945
564.00,0.1949
563.00,0.1953
562.00,0.1955
561.00,0.1958
560.00,0.1962
559.00,0.1966
558.00,0.1969
557.00,0.1970
556.00,0.1973
555.00,0.1977
554.00,0.1982
553.00,0.1986
552.00,0.1990
551.00,0.1991
550.00,0.1992
549.00,0.1996
548.00,0.2002
547.00,0.2008
546.00,0.2013
545.00,0.2019
544.00,0.2027
543.00,0.2033
542.00,0.2036
541.00,0.2037
540.00,0.2040
539.00,0.2042
538.00,0.2042
537.00,0.2041
536.00,0.2042
535.00,0.2042
534.00,0.2040
533.00,0.2038
532.00,0.2038
531.00,0.2038
530.00,0.2038
529.00,0.2041
528.00,0.2047
527.00,0.2053
526.00,0.2055
525.00,0.2055
524.00,0.2057
523.00,0.2060
522.00,0.2063
521.00,0.2067
520.00,0.2073
519.00,0.2076
518.00,0.2075
517.00,0.2074
516.00,0.2078
515.00,0.2084
514.00,0.2087
513.00,0.2088
512.00,0.2090
511.00,0.2093
510.00,0.2094
509.00,0.2096
508.00,0.2101
507.00,0.2106
506.00,0.2108
505.00,0.2109
504.00,0.2111
503.00,0.2113
502.00,0.2113
501.00,0.2114
500.00,0.2117
499.00,0.2118
498.00,0.2115
497.00,0.2112
496.00,0.2114
495.00,0.2118
494.00,0.2122
493.00,0.2127
492.00,0.2135
491.00,0.2141
490.00,0.2143
489.00,0.2143
488.00,0.2148
487.00,0.2156
486.00,0.2163
485.00,0.2168
484.00,0.2171
483.00,0.2173
482.00,0.2172
481.00,0.2172
480.00,0.2177
479.00,0.2182
478.00,0.2183
477.00,0.2185
476.00,0.2190
475.00,0.2193
474.00,0.2190
473.00,0.2185
472.00,0.2186
471.00,0.2193
470.00,0.2199
469.00,0.2204
468.00,0.2209
467.00,0.2211
466.00,0.2209
465.00,0.2208
464.00,0.2214
463.00,0.2224
462.00,0.2230
461.00,0.2234
460.00,0.2237
459.00,0.2242
458.00,0.2244
457.00,0.2246
456.00,0.2250
455.00,0.2249
454.00,0.2239
453.00,0.2230
452.00,0.2233
451.00,0.2241
450.00,0.2243
