Created as New Dataset,Sample 008 By Administrator Date Thursday, May 29 2025
cm-1,A
4000.00,0.0088
3999.00,0.0088
3998.00,0.0088
3997.00,0.0088
3996.00,0.0088
3995.00,0.0088
3994.00,0.0088
3993.00,0.0088
3992.00,0.0088
3991.00,0.0089
3990.00,0.0089
3989.00,0.0089
3988.00,0.0089
3987.00,0.0089
3986.00,0.0089
3985.00,0.0089
3984.00,0.0088
3983.00,0.0088
3982.00,0.0088
3981.00,0.0089
3980.00,0.0089
3979.00,0.0089
3978.00,0.0089
3977.00,0.0089
3976.00,0.0088
3975.00,0.0088
3974.00,0.0088
3973.00,0.0088
3972.00,0.0088
3971.00,0.0088
3970.00,0.0088
3969.00,0.0088
3968.00,0.0088
3967.00,0.0089
3966.00,0.0089
3965.00,0.0089
3964.00,0.0089
3963.00,0.0089
3962.00,0.0089
3961.00,0.0089
3960.00,0.0089
3959.00,0.0089
3958.00,0.0089
3957.00,0.0089
3956.00,0.0089
3955.00,0.0089
3954.00,0.0089
3953.00,0.0089
3952.00,0.0089
3951.00,0.0089
3950.00,0.0089
3949.00,0.0089
3948.00,0.0089
3947.00,0.0089
3946.00,0.0090
3945.00,0.0090
3944.00,0.0090
3943.00,0.0090
3942.00,0.0090
3941.00,0.0090
3940.00,0.0089
3939.00,0.0089
3938.00,0.0089
3937.00,0.0089
3936.00,0.0089
3935.00,0.0090
3934.00,0.0090
3933.00,0.0090
3932.00,0.0090
3931.00,0.0089
3930.00,0.0089
3929.00,0.0089
3928.00,0.0089
3927.00,0.0089
3926.00,0.0089
3925.00,0.0089
3924.00,0.0089
3923.00,0.0089
3922.00,0.0089
3921.00,0.0089
3920.00,0.0089
3919.00,0.0090
3918.00,0.0090
3917.00,0.0090
3916.00,0.0089
3915.00,0.0089
3914.00,0.0088
3913.00,0.0088
3912.00,0.0088
3911.00,0.0088
3910.00,0.0088
3909.00,0.0089
3908.00,0.0089
3907.00,0.0090
3906.00,0.0090
3905.00,0.0090
3904.00,0.0091
3903.00,0.0091
3902.00,0.0090
3901.00,0.0090
3900.00,0.0089
3899.00,0.0088
3898.00,0.0088
3897.00,0.0088
3896.00,0.0088
3895.00,0.0088
3894.00,0.0088
3893.00,0.0088
3892.00,0.0088
3891.00,0.0088
3890.00,0.0088
3889.00,0.0088
3888.00,0.0088
3887.00,0.0088
3886.00,0.0088
3885.00,0.0088
3884.00,0.0088
3883.00,0.0088
3882.00,0.0088
3881.00,0.0088
3880.00,0.0088
3879.00,0.0088
3878.00,0.0088
3877.00,0.0088
3876.00,0.0088
3875.00,0.0088
3874.00,0.0088
3873.00,0.0088
3872.00,0.0088
3871.00,0.0088
3870.00,0.0088
3869.00,0.0088
3868.00,0.0088
3867.00,0.0088
3866.00,0.0088
3865.00,0.0088
3864.00,0.0088
3863.00,0.0088
3862.00,0.0088
3861.00,0.0088
3860.00,0.0088
3859.00,0.0088
3858.00,0.0087
3857.00,0.0087
3856.00,0.0087
3855.00,0.0087
3854.00,0.0087
3853.00,0.0087
3852.00,0.0086
3851.00,0.0085
3850.00,0.0085
3849.00,0.0085
3848.00,0.0086
3847.00,0.0087
3846.00,0.0088
3845.00,0.0088
3844.00,0.0088
3843.00,0.0088
3842.00,0.0088
3841.00,0.0088
3840.00,0.0088
3839.00,0.0087
3838.00,0.0087
3837.00,0.0086
3836.00,0.0086
3835.00,0.0086
3834.00,0.0087
3833.00,0.0087
3832.00,0.0087
3831.00,0.0087
3830.00,0.0087
3829.00,0.0087
3828.00,0.0087
3827.00,0.0087
3826.00,0.0087
3825.00,0.0088
3824.00,0.0088
3823.00,0.0088
3822.00,0.0088
3821.00,0.0088
3820.00,0.0088
3819.00,0.0088
3818.00,0.0088
3817.00,0.0088
3816.00,0.0088
3815.00,0.0088
3814.00,0.0088
3813.00,0.0088
3812.00,0.0089
3811.00,0.0089
3810.00,0.0089
3809.00,0.0089
3808.00,0.0089
3807.00,0.0089
3806.00,0.0088
3805.00,0.0088
3804.00,0.0088
3803.00,0.0087
3802.00,0.0087
3801.00,0.0087
3800.00,0.0088
3799.00,0.0088
3798.00,0.0088
3797.00,0.0088
3796.00,0.0089
3795.00,0.0089
3794.00,0.0089
3793.00,0.0089
3792.00,0.0089
3791.00,0.0090
3790.00,0.0090
3789.00,0.0090
3788.00,0.0091
3787.00,0.0091
3786.00,0.0091
3785.00,0.0091
3784.00,0.0091
3783.00,0.0091
3782.00,0.0091
3781.00,0.0091
3780.00,0.0092
3779.00,0.0092
3778.00,0.0092
3777.00,0.0092
3776.00,0.0092
3775.00,0.0093
3774.00,0.0093
3773.00,0.0093
3772.00,0.0093
3771.00,0.0093
3770.00,0.0093
3769.00,0.0093
3768.00,0.0093
3767.00,0.0094
3766.00,0.0094
3765.00,0.0094
3764.00,0.0095
3763.00,0.0095
3762.00,0.0095
3761.00,0.0095
3760.00,0.0096
3759.00,0.0096
3758.00,0.0096
3757.00,0.0096
3756.00,0.0097
3755.00,0.0097
3754.00,0.0097
3753.00,0.0097
3752.00,0.0097
3751.00,0.0098
3750.00,0.0098
3749.00,0.0097
3748.00,0.0097
3747.00,0.0097
3746.00,0.0096
3745.00,0.0096
3744.00,0.0096
3743.00,0.0096
3742.00,0.0096
3741.00,0.0097
3740.00,0.0098
3739.00,0.0099
3738.00,0.0099
3737.00,0.0100
3736.00,0.0101
3735.00,0.0101
3734.00,0.0102
3733.00,0.0102
3732.00,0.0101
3731.00,0.0102
3730.00,0.0102
3729.00,0.0103
3728.00,0.0103
3727.00,0.0103
3726.00,0.0104
3725.00,0.0105
3724.00,0.0105
3723.00,0.0105
3722.00,0.0106
3721.00,0.0105
3720.00,0.0105
3719.00,0.0106
3718.00,0.0106
3717.00,0.0107
3716.00,0.0108
3715.00,0.0108
3714.00,0.0109
3713.00,0.0109
3712.00,0.0110
3711.00,0.0111
3710.00,0.0112
3709.00,0.0113
3708.00,0.0113
3707.00,0.0114
3706.00,0.0114
3705.00,0.0115
3704.00,0.0116
3703.00,0.0117
3702.00,0.0118
3701.00,0.0118
3700.00,0.0120
3699.00,0.0121
3698.00,0.0122
3697.00,0.0123
3696.00,0.0125
3695.00,0.0127
3694.00,0.0128
3693.00,0.0129
3692.00,0.0129
3691.00,0.0130
3690.00,0.0133
3689.00,0.0135
3688.00,0.0138
3687.00,0.0140
3686.00,0.0142
3685.00,0.0144
3684.00,0.0146
3683.00,0.0148
3682.00,0.0150
3681.00,0.0152
3680.00,0.0154
3679.00,0.0155
3678.00,0.0157
3677.00,0.0160
3676.00,0.0164
3675.00,0.0168
3674.00,0.0172
3673.00,0.0176
3672.00,0.0179
3671.00,0.0182
3670.00,0.0186
3669.00,0.0190
3668.00,0.0194
3667.00,0.0197
3666.00,0.0201
3665.00,0.0204
3664.00,0.0208
3663.00,0.0212
3662.00,0.0216
3661.00,0.0220
3660.00,0.0224
3659.00,0.0229
3658.00,0.0234
3657.00,0.0240
3656.00,0.0246
3655.00,0.0251
3654.00,0.0255
3653.00,0.0258
3652.00,0.0262
3651.00,0.0268
3650.00,0.0276
3649.00,0.0285
3648.00,0.0294
3647.00,0.0301
3646.00,0.0307
3645.00,0.0312
3644.00,0.0317
3643.00,0.0322
3642.00,0.0328
3641.00,0.0333
3640.00,0.0339
3639.00,0.0345
3638.00,0.0351
3637.00,0.0357
3636.00,0.0363
3635.00,0.0370
3634.00,0.0376
3633.00,0.0382
3632.00,0.0387
3631.00,0.0393
3630.00,0.0401
3629.00,0.0410
3628.00,0.0419
3627.00,0.0428
3626.00,0.0435
3625.00,0.0441
3624.00,0.0446
3623.00,0.0452
3622.00,0.0457
3621.00,0.0464
3620.00,0.0471
3619.00,0.0479
3618.00,0.0488
3617.00,0.0495
3616.00,0.0502
3615.00,0.0508
3614.00,0.0515
3613.00,0.0523
3612.00,0.0530
3611.00,0.0537
3610.00,0.0545
3609.00,0.0552
3608.00,0.0559
3607.00,0.0566
3606.00,0.0573
3605.00,0.0579
3604.00,0.0585
3603.00,0.0591
3602.00,0.0596
3601.00,0.0602
3600.00,0.0609
3599.00,0.0616
3598.00,0.0623
3597.00,0.0630
3596.00,0.0637
3595.00,0.0644
3594.00,0.0652
3593.00,0.0658
3592.00,0.0664
3591.00,0.0669
3590.00,0.0675
3589.00,0.0682
3588.00,0.0690
3587.00,0.0699
3586.00,0.0707
3585.00,0.0714
3584.00,0.0720
3583.00,0.0726
3582.00,0.0732
3581.00,0.0737
3580.00,0.0743
3579.00,0.0750
3578.00,0.0756
3577.00,0.0762
3576.00,0.0768
3575.00,0.0774
3574.00,0.0780
3573.00,0.0786
3572.00,0.0792
3571.00,0.0798
3570.00,0.0803
3569.00,0.0809
3568.00,0.0816
3567.00,0.0824
3566.00,0.0833
3565.00,0.0840
3564.00,0.0847
3563.00,0.0853
3562.00,0.0858
3561.00,0.0864
3560.00,0.0870
3559.00,0.0876
3558.00,0.0881
3557.00,0.0887
3556.00,0.0893
3555.00,0.0899
3554.00,0.0905
3553.00,0.0911
3552.00,0.0918
3551.00,0.0925
3550.00,0.0931
3549.00,0.0937
3548.00,0.0943
3547.00,0.0949
3546.00,0.0956
3545.00,0.0963
3544.00,0.0970
3543.00,0.0976
3542.00,0.0982
3541.00,0.0988
3540.00,0.0993
3539.00,0.0999
3538.00,0.1005
3537.00,0.1010
3536.00,0.1016
3535.00,0.1022
3534.00,0.1027
3533.00,0.1032
3532.00,0.1038
3531.00,0.1044
3530.00,0.1050
3529.00,0.1057
3528.00,0.1064
3527.00,0.1071
3526.00,0.1078
3525.00,0.1084
3524.00,0.1090
3523.00,0.1095
3522.00,0.1101
3521.00,0.1107
3520.00,0.1112
3519.00,0.1118
3518.00,0.1123
3517.00,0.1129
3516.00,0.1135
3515.00,0.1141
3514.00,0.1146
3513.00,0.1152
3512.00,0.1157
3511.00,0.1163
3510.00,0.1169
3509.00,0.1176
3508.00,0.1182
3507.00,0.1188
3506.00,0.1193
3505.00,0.1200
3504.00,0.1206
3503.00,0.1213
3502.00,0.1219
3501.00,0.1225
3500.00,0.1231
3499.00,0.1237
3498.00,0.1242
3497.00,0.1248
3496.00,0.1253
3495.00,0.1258
3494.00,0.1264
3493.00,0.1269
3492.00,0.1274
3491.00,0.1279
3490.00,0.1285
3489.00,0.1291
3488.00,0.1297
3487.00,0.1302
3486.00,0.1308
3485.00,0.1312
3484.00,0.1318
3483.00,0.1324
3482.00,0.1330
3481.00,0.1337
3480.00,0.1343
3479.00,0.1348
3478.00,0.1352
3477.00,0.1357
3476.00,0.1361
3475.00,0.1367
3474.00,0.1372
3473.00,0.1378
3472.00,0.1384
3471.00,0.1390
3470.00,0.1396
3469.00,0.1402
3468.00,0.1407
3467.00,0.1411
3466.00,0.1416
3465.00,0.1420
3464.00,0.1425
3463.00,0.1431
3462.00,0.1436
3461.00,0.1441
3460.00,0.1445
3459.00,0.1450
3458.00,0.1454
3457.00,0.1458
3456.00,0.1462
3455.00,0.1467
3454.00,0.1471
3453.00,0.1476
3452.00,0.1480
3451.00,0.1485
3450.00,0.1489
3449.00,0.1494
3448.00,0.1498
3447.00,0.1503
3446.00,0.1507
3445.00,0.1511
3444.00,0.1515
3443.00,0.1519
3442.00,0.1524
3441.00,0.1529
3440.00,0.1534
3439.00,0.1540
3438.00,0.1544
3437.00,0.1549
3436.00,0.1552
3435.00,0.1555
3434.00,0.1559
3433.00,0.1562
3432.00,0.1565
3431.00,0.1569
3430.00,0.1572
3429.00,0.1575
3428.00,0.1578
3427.00,0.1581
3426.00,0.1584
3425.00,0.1586
3424.00,0.1589
3423.00,0.1592
3422.00,0.1596
3421.00,0.1599
3420.00,0.1602
3419.00,0.1605
3418.00,0.1608
3417.00,0.1611
3416.00,0.1614
3415.00,0.1617
3414.00,0.1620
3413.00,0.1622
3412.00,0.1624
3411.00,0.1626
3410.00,0.1628
3409.00,0.1629
3408.00,0.1631
3407.00,0.1632
3406.00,0.1633
3405.00,0.1635
3404.00,0.1638
3403.00,0.1641
3402.00,0.1644
3401.00,0.1646
3400.00,0.1646
3399.00,0.1646
3398.00,0.1646
3397.00,0.1646
3396.00,0.1647
3395.00,0.1648
3394.00,0.1649
3393.00,0.1650
3392.00,0.1651
3391.00,0.1651
3390.00,0.1650
3389.00,0.1649
3388.00,0.1648
3387.00,0.1648
3386.00,0.1647
3385.00,0.1647
3384.00,0.1648
3383.00,0.1648
3382.00,0.1648
3381.00,0.1648
3380.00,0.1648
3379.00,0.1647
3378.00,0.1647
3377.00,0.1645
3376.00,0.1644
3375.00,0.1643
3374.00,0.1642
3373.00,0.1641
3372.00,0.1640
3371.00,0.1640
3370.00,0.1638
3369.00,0.1637
3368.00,0.1635
3367.00,0.1632
3366.00,0.1630
3365.00,0.1627
3364.00,0.1625
3363.00,0.1623
3362.00,0.1621
3361.00,0.1619
3360.00,0.1616
3359.00,0.1613
3358.00,0.1609
3357.00,0.1607
3356.00,0.1604
3355.00,0.1603
3354.00,0.1601
3353.00,0.1599
3352.00,0.1597
3351.00,0.1594
3350.00,0.1590
3349.00,0.1586
3348.00,0.1582
3347.00,0.1579
3346.00,0.1575
3345.00,0.1572
3344.00,0.1569
3343.00,0.1566
3342.00,0.1564
3341.00,0.1561
3340.00,0.1558
3339.00,0.1554
3338.00,0.1550
3337.00,0.1546
3336.00,0.1542
3335.00,0.1538
3334.00,0.1534
3333.00,0.1530
3332.00,0.1527
3331.00,0.1524
3330.00,0.1520
3329.00,0.1517
3328.00,0.1513
3327.00,0.1510
3326.00,0.1506
3325.00,0.1502
3324.00,0.1498
3323.00,0.1493
3322.00,0.1489
3321.00,0.1485
3320.00,0.1481
3319.00,0.1477
3318.00,0.1473
3317.00,0.1469
3316.00,0.1466
3315.00,0.1463
3314.00,0.1460
3313.00,0.1456
3312.00,0.1453
3311.00,0.1449
3310.00,0.1446
3309.00,0.1443
3308.00,0.1440
3307.00,0.1436
3306.00,0.1433
3305.00,0.1429
3304.00,0.1426
3303.00,0.1422
3302.00,0.1418
3301.00,0.1415
3300.00,0.1411
3299.00,0.1408
3298.00,0.1404
3297.00,0.1401
3296.00,0.1398
3295.00,0.1395
3294.00,0.1392
3293.00,0.1388
3292.00,0.1385
3291.00,0.1381
3290.00,0.1378
3289.00,0.1374
3288.00,0.1371
3287.00,0.1367
3286.00,0.1364
3285.00,0.1361
3284.00,0.1358
3283.00,0.1355
3282.00,0.1352
3281.00,0.1348
3280.00,0.1345
3279.00,0.1341
3278.00,0.1338
3277.00,0.1335
3276.00,0.1332
3275.00,0.1329
3274.00,0.1326
3273.00,0.1323
3272.00,0.1320
3271.00,0.1316
3270.00,0.1313
3269.00,0.1309
3268.00,0.1305
3267.00,0.1302
3266.00,0.1298
3265.00,0.1295
3264.00,0.1291
3263.00,0.1288
3262.00,0.1285
3261.00,0.1282
3260.00,0.1279
3259.00,0.1275
3258.00,0.1271
3257.00,0.1267
3256.00,0.1264
3255.00,0.1260
3254.00,0.1256
3253.00,0.1252
3252.00,0.1248
3251.00,0.1243
3250.00,0.1239
3249.00,0.1236
3248.00,0.1232
3247.00,0.1228
3246.00,0.1223
3245.00,0.1219
3244.00,0.1214
3243.00,0.1210
3242.00,0.1206
3241.00,0.1201
3240.00,0.1197
3239.00,0.1193
3238.00,0.1188
3237.00,0.1184
3236.00,0.1180
3235.00,0.1175
3234.00,0.1171
3233.00,0.1166
3232.00,0.1160
3231.00,0.1155
3230.00,0.1150
3229.00,0.1145
3228.00,0.1141
3227.00,0.1136
3226.00,0.1131
3225.00,0.1126
3224.00,0.1121
3223.00,0.1116
3222.00,0.1111
3221.00,0.1105
3220.00,0.1100
3219.00,0.1094
3218.00,0.1089
3217.00,0.1084
3216.00,0.1079
3215.00,0.1074
3214.00,0.1068
3213.00,0.1063
3212.00,0.1057
3211.00,0.1052
3210.00,0.1046
3209.00,0.1041
3208.00,0.1035
3207.00,0.1030
3206.00,0.1024
3205.00,0.1019
3204.00,0.1014
3203.00,0.1008
3202.00,0.1002
3201.00,0.0996
3200.00,0.0991
3199.00,0.0985
3198.00,0.0979
3197.00,0.0973
3196.00,0.0968
3195.00,0.0962
3194.00,0.0956
3193.00,0.0951
3192.00,0.0945
3191.00,0.0939
3190.00,0.0933
3189.00,0.0927
3188.00,0.0921
3187.00,0.0915
3186.00,0.0910
3185.00,0.0904
3184.00,0.0898
3183.00,0.0892
3182.00,0.0887
3181.00,0.0881
3180.00,0.0876
3179.00,0.0870
3178.00,0.0865
3177.00,0.0859
3176.00,0.0854
3175.00,0.0849
3174.00,0.0844
3173.00,0.0838
3172.00,0.0833
3171.00,0.0827
3170.00,0.0821
3169.00,0.0815
3168.00,0.0810
3167.00,0.0805
3166.00,0.0800
3165.00,0.0795
3164.00,0.0789
3163.00,0.0784
3162.00,0.0779
3161.00,0.0774
3160.00,0.0769
3159.00,0.0764
3158.00,0.0759
3157.00,0.0754
3156.00,0.0749
3155.00,0.0745
3154.00,0.0740
3153.00,0.0735
3152.00,0.0729
3151.00,0.0724
3150.00,0.0719
3149.00,0.0714
3148.00,0.0709
3147.00,0.0705
3146.00,0.0700
3145.00,0.0696
3144.00,0.0691
3143.00,0.0687
3142.00,0.0683
3141.00,0.0678
3140.00,0.0674
3139.00,0.0669
3138.00,0.0664
3137.00,0.0659
3136.00,0.0654
3135.00,0.0650
3134.00,0.0646
3133.00,0.0642
3132.00,0.0638
3131.00,0.0634
3130.00,0.0629
3129.00,0.0625
3128.00,0.0620
3127.00,0.0616
3126.00,0.0612
3125.00,0.0608
3124.00,0.0604
3123.00,0.0600
3122.00,0.0597
3121.00,0.0593
3120.00,0.0590
3119.00,0.0586
3118.00,0.0583
3117.00,0.0579
3116.00,0.0575
3115.00,0.0571
3114.00,0.0567
3113.00,0.0562
3112.00,0.0559
3111.00,0.0556
3110.00,0.0552
3109.00,0.0549
3108.00,0.0545
3107.00,0.0542
3106.00,0.0538
3105.00,0.0535
3104.00,0.0531
3103.00,0.0528
3102.00,0.0524
3101.00,0.0521
3100.00,0.0518
3099.00,0.0514
3098.00,0.0511
3097.00,0.0507
3096.00,0.0503
3095.00,0.0500
3094.00,0.0498
3093.00,0.0495
3092.00,0.0492
3091.00,0.0489
3090.00,0.0487
3089.00,0.0484
3088.00,0.0481
3087.00,0.0478
3086.00,0.0475
3085.00,0.0472
3084.00,0.0469
3083.00,0.0466
3082.00,0.0463
3081.00,0.0460
3080.00,0.0458
3079.00,0.0455
3078.00,0.0453
3077.00,0.0450
3076.00,0.0447
3075.00,0.0444
3074.00,0.0441
3073.00,0.0438
3072.00,0.0436
3071.00,0.0434
3070.00,0.0432
3069.00,0.0429
3068.00,0.0427
3067.00,0.0425
3066.00,0.0422
3065.00,0.0420
3064.00,0.0417
3063.00,0.0415
3062.00,0.0412
3061.00,0.0409
3060.00,0.0407
3059.00,0.0405
3058.00,0.0403
3057.00,0.0400
3056.00,0.0398
3055.00,0.0395
3054.00,0.0393
3053.00,0.0391
3052.00,0.0389
3051.00,0.0387
3050.00,0.0384
3049.00,0.0382
3048.00,0.0380
3047.00,0.0378
3046.00,0.0377
3045.00,0.0375
3044.00,0.0373
3043.00,0.0371
3042.00,0.0369
3041.00,0.0367
3040.00,0.0365
3039.00,0.0363
3038.00,0.0360
3037.00,0.0358
3036.00,0.0356
3035.00,0.0354
3034.00,0.0352
3033.00,0.0351
3032.00,0.0349
3031.00,0.0347
3030.00,0.0346
3029.00,0.0344
3028.00,0.0343
3027.00,0.0341
3026.00,0.0340
3025.00,0.0338
3024.00,0.0337
3023.00,0.0335
3022.00,0.0334
3021.00,0.0332
3020.00,0.0331
3019.00,0.0329
3018.00,0.0328
3017.00,0.0327
3016.00,0.0326
3015.00,0.0324
3014.00,0.0323
3013.00,0.0322
3012.00,0.0321
3011.00,0.0320
3010.00,0.0319
3009.00,0.0317
3008.00,0.0316
3007.00,0.0315
3006.00,0.0314
3005.00,0.0313
3004.00,0.0312
3003.00,0.0310
3002.00,0.0309
3001.00,0.0308
3000.00,0.0307
2999.00,0.0307
2998.00,0.0306
2997.00,0.0305
2996.00,0.0305
2995.00,0.0304
2994.00,0.0304
2993.00,0.0303
2992.00,0.0303
2991.00,0.0302
2990.00,0.0301
2989.00,0.0301
2988.00,0.0300
2987.00,0.0300
2986.00,0.0300
2985.00,0.0300
2984.00,0.0300
2983.00,0.0301
2982.00,0.0301
2981.00,0.0302
2980.00,0.0302
2979.00,0.0303
2978.00,0.0303
2977.00,0.0303
2976.00,0.0304
2975.00,0.0304
2974.00,0.0304
2973.00,0.0305
2972.00,0.0305
2971.00,0.0306
2970.00,0.0307
2969.00,0.0307
2968.00,0.0308
2967.00,0.0308
2966.00,0.0308
2965.00,0.0308
2964.00,0.0309
2963.00,0.0310
2962.00,0.0310
2961.00,0.0311
2960.00,0.0311
2959.00,0.0312
2958.00,0.0312
2957.00,0.0312
2956.00,0.0311
2955.00,0.0311
2954.00,0.0310
2953.00,0.0309
2952.00,0.0308
2951.00,0.0308
2950.00,0.0307
2949.00,0.0307
2948.00,0.0307
2947.00,0.0307
2946.00,0.0307
2945.00,0.0307
2944.00,0.0308
2943.00,0.0308
2942.00,0.0309
2941.00,0.0310
2940.00,0.0312
2939.00,0.0313
2938.00,0.0315
2937.00,0.0317
2936.00,0.0319
2935.00,0.0321
2934.00,0.0324
2933.00,0.0326
2932.00,0.0329
2931.00,0.0332
2930.00,0.0334
2929.00,0.0337
2928.00,0.0340
2927.00,0.0343
2926.00,0.0345
2925.00,0.0348
2924.00,0.0350
2923.00,0.0352
2922.00,0.0353
2921.00,0.0354
2920.00,0.0355
2919.00,0.0354
2918.00,0.0352
2917.00,0.0349
2916.00,0.0345
2915.00,0.0340
2914.00,0.0334
2913.00,0.0328
2912.00,0.0322
2911.00,0.0317
2910.00,0.0312
2909.00,0.0307
2908.00,0.0303
2907.00,0.0300
2906.00,0.0297
2905.00,0.0295
2904.00,0.0292
2903.00,0.0289
2902.00,0.0287
2901.00,0.0285
2900.00,0.0282
2899.00,0.0280
2898.00,0.0278
2897.00,0.0275
2896.00,0.0273
2895.00,0.0270
2894.00,0.0267
2893.00,0.0265
2892.00,0.0263
2891.00,0.0261
2890.00,0.0259
2889.00,0.0258
2888.00,0.0256
2887.00,0.0254
2886.00,0.0253
2885.00,0.0251
2884.00,0.0249
2883.00,0.0247
2882.00,0.0246
2881.00,0.0245
2880.00,0.0244
2879.00,0.0244
2878.00,0.0244
2877.00,0.0243
2876.00,0.0242
2875.00,0.0241
2874.00,0.0240
2873.00,0.0239
2872.00,0.0238
2871.00,0.0237
2870.00,0.0236
2869.00,0.0235
2868.00,0.0234
2867.00,0.0233
2866.00,0.0232
2865.00,0.0231
2864.00,0.0231
2863.00,0.0231
2862.00,0.0231
2861.00,0.0232
2860.00,0.0234
2859.00,0.0236
2858.00,0.0238
2857.00,0.0240
2856.00,0.0243
2855.00,0.0245
2854.00,0.0247
2853.00,0.0249
2852.00,0.0249
2851.00,0.0249
2850.00,0.0246
2849.00,0.0242
2848.00,0.0237
2847.00,0.0231
2846.00,0.0225
2845.00,0.0219
2844.00,0.0214
2843.00,0.0209
2842.00,0.0205
2841.00,0.0201
2840.00,0.0198
2839.00,0.0196
2838.00,0.0194
2837.00,0.0192
2836.00,0.0190
2835.00,0.0188
2834.00,0.0187
2833.00,0.0185
2832.00,0.0184
2831.00,0.0182
2830.00,0.0180
2829.00,0.0179
2828.00,0.0178
2827.00,0.0178
2826.00,0.0177
2825.00,0.0176
2824.00,0.0176
2823.00,0.0175
2822.00,0.0174
2821.00,0.0173
2820.00,0.0173
2819.00,0.0171
2818.00,0.0170
2817.00,0.0169
2816.00,0.0168
2815.00,0.0167
2814.00,0.0167
2813.00,0.0166
2812.00,0.0166
2811.00,0.0166
2810.00,0.0165
2809.00,0.0165
2808.00,0.0164
2807.00,0.0163
2806.00,0.0162
2805.00,0.0162
2804.00,0.0161
2803.00,0.0161
2802.00,0.0160
2801.00,0.0159
2800.00,0.0158
2799.00,0.0158
2798.00,0.0157
2797.00,0.0157
2796.00,0.0157
2795.00,0.0156
2794.00,0.0156
2793.00,0.0155
2792.00,0.0155
2791.00,0.0155
2790.00,0.0155
2789.00,0.0154
2788.00,0.0153
2787.00,0.0152
2786.00,0.0152
2785.00,0.0151
2784.00,0.0151
2783.00,0.0151
2782.00,0.0150
2781.00,0.0150
2780.00,0.0150
2779.00,0.0149
2778.00,0.0149
2777.00,0.0149
2776.00,0.0148
2775.00,0.0148
2774.00,0.0147
2773.00,0.0146
2772.00,0.0146
2771.00,0.0145
2770.00,0.0145
2769.00,0.0144
2768.00,0.0144
2767.00,0.0143
2766.00,0.0143
2765.00,0.0143
2764.00,0.0142
2763.00,0.0142
2762.00,0.0141
2761.00,0.0141
2760.00,0.0141
2759.00,0.0140
2758.00,0.0140
2757.00,0.0140
2756.00,0.0139
2755.00,0.0139
2754.00,0.0139
2753.00,0.0138
2752.00,0.0138
2751.00,0.0138
2750.00,0.0138
2749.00,0.0138
2748.00,0.0137
2747.00,0.0137
2746.00,0.0137
2745.00,0.0137
2744.00,0.0136
2743.00,0.0136
2742.00,0.0135
2741.00,0.0135
2740.00,0.0135
2739.00,0.0135
2738.00,0.0134
2737.00,0.0134
2736.00,0.0134
2735.00,0.0134
2734.00,0.0134
2733.00,0.0134
2732.00,0.0133
2731.00,0.0133
2730.00,0.0132
2729.00,0.0132
2728.00,0.0132
2727.00,0.0131
2726.00,0.0131
2725.00,0.0131
2724.00,0.0131
2723.00,0.0131
2722.00,0.0130
2721.00,0.0130
2720.00,0.0129
2719.00,0.0129
2718.00,0.0129
2717.00,0.0129
2716.00,0.0129
2715.00,0.0129
2714.00,0.0128
2713.00,0.0128
2712.00,0.0127
2711.00,0.0127
2710.00,0.0127
2709.00,0.0127
2708.00,0.0127
2707.00,0.0127
2706.00,0.0127
2705.00,0.0126
2704.00,0.0126
2703.00,0.0125
2702.00,0.0125
2701.00,0.0125
2700.00,0.0125
2699.00,0.0125
2698.00,0.0125
2697.00,0.0124
2696.00,0.0124
2695.00,0.0124
2694.00,0.0123
2693.00,0.0123
2692.00,0.0123
2691.00,0.0123
2690.00,0.0123
2689.00,0.0123
2688.00,0.0122
2687.00,0.0122
2686.00,0.0122
2685.00,0.0122
2684.00,0.0122
2683.00,0.0121
2682.00,0.0121
2681.00,0.0121
2680.00,0.0121
2679.00,0.0121
2678.00,0.0121
2677.00,0.0121
2676.00,0.0121
2675.00,0.0120
2674.00,0.0120
2673.00,0.0119
2672.00,0.0119
2671.00,0.0119
2670.00,0.0119
2669.00,0.0119
2668.00,0.0119
2667.00,0.0119
2666.00,0.0119
2665.00,0.0119
2664.00,0.0120
2663.00,0.0120
2662.00,0.0120
2661.00,0.0121
2660.00,0.0121
2659.00,0.0121
2658.00,0.0121
2657.00,0.0122
2656.00,0.0122
2655.00,0.0122
2654.00,0.0122
2653.00,0.0121
2652.00,0.0121
2651.00,0.0120
2650.00,0.0120
2649.00,0.0120
2648.00,0.0120
2647.00,0.0120
2646.00,0.0120
2645.00,0.0119
2644.00,0.0119
2643.00,0.0118
2642.00,0.0118
2641.00,0.0117
2640.00,0.0117
2639.00,0.0116
2638.00,0.0117
2637.00,0.0117
2636.00,0.0117
2635.00,0.0117
2634.00,0.0116
2633.00,0.0116
2632.00,0.0115
2631.00,0.0115
2630.00,0.0114
2629.00,0.0113
2628.00,0.0113
2627.00,0.0113
2626.00,0.0113
2625.00,0.0112
2624.00,0.0112
2623.00,0.0111
2622.00,0.0111
2621.00,0.0111
2620.00,0.0110
2619.00,0.0110
2618.00,0.0110
2617.00,0.0109
2616.00,0.0109
2615.00,0.0108
2614.00,0.0108
2613.00,0.0108
2612.00,0.0108
2611.00,0.0108
2610.00,0.0107
2609.00,0.0107
2608.00,0.0106
2607.00,0.0106
2606.00,0.0105
2605.00,0.0105
2604.00,0.0105
2603.00,0.0105
2602.00,0.0105
2601.00,0.0105
2600.00,0.0104
2599.00,0.0104
2598.00,0.0103
2597.00,0.0102
2596.00,0.0101
2595.00,0.0101
2594.00,0.0101
2593.00,0.0101
2592.00,0.0100
2591.00,0.0100
2590.00,0.0100
2589.00,0.0100
2588.00,0.0100
2587.00,0.0100
2586.00,0.0100
2585.00,0.0100
2584.00,0.0100
2583.00,0.0100
2582.00,0.0099
2581.00,0.0099
2580.00,0.0099
2579.00,0.0099
2578.00,0.0099
2577.00,0.0098
2576.00,0.0098
2575.00,0.0098
2574.00,0.0098
2573.00,0.0097
2572.00,0.0097
2571.00,0.0097
2570.00,0.0096
2569.00,0.0097
2568.00,0.0097
2567.00,0.0097
2566.00,0.0097
2565.00,0.0096
2564.00,0.0095
2563.00,0.0095
2562.00,0.0095
2561.00,0.0095
2560.00,0.0096
2559.00,0.0095
2558.00,0.0095
2557.00,0.0095
2556.00,0.0095
2555.00,0.0095
2554.00,0.0095
2553.00,0.0096
2552.00,0.0096
2551.00,0.0096
2550.00,0.0095
2549.00,0.0095
2548.00,0.0095
2547.00,0.0095
2546.00,0.0095
2545.00,0.0095
2544.00,0.0095
2543.00,0.0094
2542.00,0.0093
2541.00,0.0093
2540.00,0.0092
2539.00,0.0093
2538.00,0.0093
2537.00,0.0093
2536.00,0.0093
2535.00,0.0093
2534.00,0.0092
2533.00,0.0092
2532.00,0.0092
2531.00,0.0092
2530.00,0.0092
2529.00,0.0092
2528.00,0.0092
2527.00,0.0092
2526.00,0.0092
2525.00,0.0091
2524.00,0.0091
2523.00,0.0090
2522.00,0.0090
2521.00,0.0090
2520.00,0.0090
2519.00,0.0091
2518.00,0.0091
2517.00,0.0092
2516.00,0.0092
2515.00,0.0093
2514.00,0.0093
2513.00,0.0093
2512.00,0.0092
2511.00,0.0092
2510.00,0.0091
2509.00,0.0091
2508.00,0.0090
2507.00,0.0090
2506.00,0.0090
2505.00,0.0090
2504.00,0.0091
2503.00,0.0091
2502.00,0.0092
2501.00,0.0092
2500.00,0.0093
2499.00,0.0093
2498.00,0.0093
2497.00,0.0092
2496.00,0.0092
2495.00,0.0092
2494.00,0.0091
2493.00,0.0091
2492.00,0.0091
2491.00,0.0091
2490.00,0.0091
2489.00,0.0090
2488.00,0.0090
2487.00,0.0090
2486.00,0.0090
2485.00,0.0090
2484.00,0.0090
2483.00,0.0090
2482.00,0.0090
2481.00,0.0089
2480.00,0.0089
2479.00,0.0089
2478.00,0.0090
2477.00,0.0090
2476.00,0.0090
2475.00,0.0090
2474.00,0.0090
2473.00,0.0090
2472.00,0.0091
2471.00,0.0091
2470.00,0.0091
2469.00,0.0090
2468.00,0.0090
2467.00,0.0089
2466.00,0.0089
2465.00,0.0090
2464.00,0.0090
2463.00,0.0091
2462.00,0.0091
2461.00,0.0092
2460.00,0.0093
2459.00,0.0093
2458.00,0.0093
2457.00,0.0093
2456.00,0.0093
2455.00,0.0092
2454.00,0.0092
2453.00,0.0093
2452.00,0.0093
2451.00,0.0092
2450.00,0.0092
2449.00,0.0091
2448.00,0.0091
2447.00,0.0091
2446.00,0.0091
2445.00,0.0091
2444.00,0.0091
2443.00,0.0091
2442.00,0.0091
2441.00,0.0091
2440.00,0.0091
2439.00,0.0091
2438.00,0.0091
2437.00,0.0091
2436.00,0.0091
2435.00,0.0091
2434.00,0.0091
2433.00,0.0091
2432.00,0.0090
2431.00,0.0090
2430.00,0.0090
2429.00,0.0090
2428.00,0.0090
2427.00,0.0089
2426.00,0.0089
2425.00,0.0090
2424.00,0.0090
2423.00,0.0091
2422.00,0.0091
2421.00,0.0091
2420.00,0.0091
2419.00,0.0091
2418.00,0.0090
2417.00,0.0090
2416.00,0.0090
2415.00,0.0090
2414.00,0.0090
2413.00,0.0090
2412.00,0.0090
2411.00,0.0090
2410.00,0.0090
2409.00,0.0090
2408.00,0.0090
2407.00,0.0090
2406.00,0.0089
2405.00,0.0089
2404.00,0.0088
2403.00,0.0088
2402.00,0.0088
2401.00,0.0088
2400.00,0.0089
2399.00,0.0089
2398.00,0.0089
2397.00,0.0089
2396.00,0.0090
2395.00,0.0090
2394.00,0.0090
2393.00,0.0090
2392.00,0.0090
2391.00,0.0090
2390.00,0.0090
2389.00,0.0090
2388.00,0.0090
2387.00,0.0090
2386.00,0.0090
2385.00,0.0090
2384.00,0.0090
2383.00,0.0091
2382.00,0.0090
2381.00,0.0090
2380.00,0.0090
2379.00,0.0089
2378.00,0.0089
2377.00,0.0090
2376.00,0.0090
2375.00,0.0091
2374.00,0.0092
2373.00,0.0093
2372.00,0.0094
2371.00,0.0094
2370.00,0.0094
2369.00,0.0094
2368.00,0.0095
2367.00,0.0095
2366.00,0.0095
2365.00,0.0096
2364.00,0.0096
2363.00,0.0096
2362.00,0.0097
2361.00,0.0098
2360.00,0.0099
2359.00,0.0100
2358.00,0.0100
2357.00,0.0100
2356.00,0.0100
2355.00,0.0100
2354.00,0.0100
2353.00,0.0100
2352.00,0.0100
2351.00,0.0100
2350.00,0.0100
2349.00,0.0102
2348.00,0.0105
2347.00,0.0106
2346.00,0.0106
2345.00,0.0105
2344.00,0.0105
2343.00,0.0106
2342.00,0.0108
2341.00,0.0109
2340.00,0.0109
2339.00,0.0109
2338.00,0.0109
2337.00,0.0109
2336.00,0.0109
2335.00,0.0109
2334.00,0.0109
2333.00,0.0108
2332.00,0.0108
2331.00,0.0108
2330.00,0.0109
2329.00,0.0110
2328.00,0.0113
2327.00,0.0117
2326.00,0.0123
2325.00,0.0128
2324.00,0.0130
2323.00,0.0131
2322.00,0.0129
2321.00,0.0126
2320.00,0.0124
2319.00,0.0122
2318.00,0.0121
2317.00,0.0121
2316.00,0.0121
2315.00,0.0120
2314.00,0.0120
2313.00,0.0120
2312.00,0.0120
2311.00,0.0120
2310.00,0.0119
2309.00,0.0119
2308.00,0.0118
2307.00,0.0118
2306.00,0.0117
2305.00,0.0117
2304.00,0.0117
2303.00,0.0118
2302.00,0.0118
2301.00,0.0119
2300.00,0.0119
2299.00,0.0120
2298.00,0.0120
2297.00,0.0121
2296.00,0.0121
2295.00,0.0122
2294.00,0.0123
2293.00,0.0124
2292.00,0.0126
2291.00,0.0127
2290.00,0.0128
2289.00,0.0128
2288.00,0.0128
2287.00,0.0128
2286.00,0.0128
2285.00,0.0128
2284.00,0.0128
2283.00,0.0127
2282.00,0.0125
2281.00,0.0124
2280.00,0.0124
2279.00,0.0124
2278.00,0.0123
2277.00,0.0122
2276.00,0.0121
2275.00,0.0121
2274.00,0.0120
2273.00,0.0120
2272.00,0.0119
2271.00,0.0119
2270.00,0.0120
2269.00,0.0120
2268.00,0.0118
2267.00,0.0117
2266.00,0.0115
2265.00,0.0114
2264.00,0.0114
2263.00,0.0115
2262.00,0.0116
2261.00,0.0118
2260.00,0.0118
2259.00,0.0118
2258.00,0.0117
2257.00,0.0115
2256.00,0.0114
2255.00,0.0113
2254.00,0.0112
2253.00,0.0111
2252.00,0.0111
2251.00,0.0111
2250.00,0.0111
2249.00,0.0111
2248.00,0.0111
2247.00,0.0112
2246.00,0.0113
2245.00,0.0115
2244.00,0.0117
2243.00,0.0118
2242.00,0.0119
2241.00,0.0118
2240.00,0.0117
2239.00,0.0116
2238.00,0.0116
2237.00,0.0116
2236.00,0.0117
2235.00,0.0117
2234.00,0.0116
2233.00,0.0115
2232.00,0.0114
2231.00,0.0113
2230.00,0.0112
2229.00,0.0112
2228.00,0.0113
2227.00,0.0115
2226.00,0.0116
2225.00,0.0115
2224.00,0.0114
2223.00,0.0113
2222.00,0.0112
2221.00,0.0113
2220.00,0.0113
2219.00,0.0112
2218.00,0.0111
2217.00,0.0110
2216.00,0.0109
2215.00,0.0109
2214.00,0.0108
2213.00,0.0109
2212.00,0.0110
2211.00,0.0112
2210.00,0.0112
2209.00,0.0112
2208.00,0.0111
2207.00,0.0111
2206.00,0.0112
2205.00,0.0114
2204.00,0.0115
2203.00,0.0116
2202.00,0.0116
2201.00,0.0115
2200.00,0.0116
2199.00,0.0116
2198.00,0.0116
2197.00,0.0117
2196.00,0.0118
2195.00,0.0117
2194.00,0.0116
2193.00,0.0115
2192.00,0.0116
2191.00,0.0118
2190.00,0.0121
2189.00,0.0123
2188.00,0.0122
2187.00,0.0119
2186.00,0.0115
2185.00,0.0112
2184.00,0.0111
2183.00,0.0111
2182.00,0.0111
2181.00,0.0112
2180.00,0.0113
2179.00,0.0115
2178.00,0.0115
2177.00,0.0115
2176.00,0.0113
2175.00,0.0110
2174.00,0.0109
2173.00,0.0110
2172.00,0.0112
2171.00,0.0115
2170.00,0.0118
2169.00,0.0121
2168.00,0.0123
2167.00,0.0125
2166.00,0.0126
2165.00,0.0126
2164.00,0.0127
2163.00,0.0130
2162.00,0.0131
2161.00,0.0127
2160.00,0.0112
2159.00,0.0091
2158.00,0.0071
2157.00,0.0061
2156.00,0.0060
2155.00,0.0064
2154.00,0.0068
2153.00,0.0073
2152.00,0.0076
2151.00,0.0080
2150.00,0.0083
2149.00,0.0085
2148.00,0.0087
2147.00,0.0089
2146.00,0.0089
2145.00,0.0090
2144.00,0.0090
2143.00,0.0091
2142.00,0.0091
2141.00,0.0092
2140.00,0.0094
2139.00,0.0095
2138.00,0.0096
2137.00,0.0096
2136.00,0.0096
2135.00,0.0095
2134.00,0.0094
2133.00,0.0094
2132.00,0.0096
2131.00,0.0098
2130.00,0.0101
2129.00,0.0104
2128.00,0.0107
2127.00,0.0109
2126.00,0.0112
2125.00,0.0115
2124.00,0.0117
2123.00,0.0120
2122.00,0.0121
2121.00,0.0122
2120.00,0.0123
2119.00,0.0124
2118.00,0.0126
2117.00,0.0128
2116.00,0.0130
2115.00,0.0131
2114.00,0.0132
2113.00,0.0133
2112.00,0.0134
2111.00,0.0135
2110.00,0.0135
2109.00,0.0135
2108.00,0.0135
2107.00,0.0135
2106.00,0.0135
2105.00,0.0134
2104.00,0.0133
2103.00,0.0132
2102.00,0.0131
2101.00,0.0132
2100.00,0.0134
2099.00,0.0135
2098.00,0.0135
2097.00,0.0135
2096.00,0.0134
2095.00,0.0131
2094.00,0.0129
2093.00,0.0128
2092.00,0.0129
2091.00,0.0130
2090.00,0.0131
2089.00,0.0132
2088.00,0.0133
2087.00,0.0133
2086.00,0.0134
2085.00,0.0133
2084.00,0.0132
2083.00,0.0131
2082.00,0.0131
2081.00,0.0131
2080.00,0.0133
2079.00,0.0135
2078.00,0.0136
2077.00,0.0135
2076.00,0.0135
2075.00,0.0133
2074.00,0.0132
2073.00,0.0130
2072.00,0.0129
2071.00,0.0128
2070.00,0.0128
2069.00,0.0127
2068.00,0.0127
2067.00,0.0126
2066.00,0.0125
2065.00,0.0124
2064.00,0.0124
2063.00,0.0124
2062.00,0.0124
2061.00,0.0124
2060.00,0.0124
2059.00,0.0123
2058.00,0.0122
2057.00,0.0121
2056.00,0.0121
2055.00,0.0121
2054.00,0.0122
2053.00,0.0127
2052.00,0.0133
2051.00,0.0137
2050.00,0.0137
2049.00,0.0132
2048.00,0.0127
2047.00,0.0124
2046.00,0.0123
2045.00,0.0123
2044.00,0.0123
2043.00,0.0122
2042.00,0.0120
2041.00,0.0118
2040.00,0.0117
2039.00,0.0116
2038.00,0.0115
2037.00,0.0114
2036.00,0.0114
2035.00,0.0112
2034.00,0.0110
2033.00,0.0107
2032.00,0.0104
2031.00,0.0101
2030.00,0.0098
2029.00,0.0095
2028.00,0.0093
2027.00,0.0092
2026.00,0.0093
2025.00,0.0095
2024.00,0.0097
2023.00,0.0099
2022.00,0.0100
2021.00,0.0099
2020.00,0.0097
2019.00,0.0094
2018.00,0.0092
2017.00,0.0091
2016.00,0.0092
2015.00,0.0093
2014.00,0.0094
2013.00,0.0094
2012.00,0.0094
2011.00,0.0094
2010.00,0.0094
2009.00,0.0092
2008.00,0.0089
2007.00,0.0083
2006.00,0.0077
2005.00,0.0076
2004.00,0.0080
2003.00,0.0085
2002.00,0.0089
2001.00,0.0092
2000.00,0.0095
1999.00,0.0097
1998.00,0.0098
1997.00,0.0097
1996.00,0.0096
1995.00,0.0095
1994.00,0.0096
1993.00,0.0098
1992.00,0.0101
1991.00,0.0104
1990.00,0.0105
1989.00,0.0106
1988.00,0.0105
1987.00,0.0104
1986.00,0.0103
1985.00,0.0103
1984.00,0.0104
1983.00,0.0106
1982.00,0.0110
1981.00,0.0115
1980.00,0.0118
1979.00,0.0116
1978.00,0.0107
1977.00,0.0095
1976.00,0.0086
1975.00,0.0080
1974.00,0.0078
1973.00,0.0076
1972.00,0.0076
1971.00,0.0077
1970.00,0.0078
1969.00,0.0080
1968.00,0.0081
1967.00,0.0081
1966.00,0.0080
1965.00,0.0080
1964.00,0.0082
1963.00,0.0083
1962.00,0.0083
1961.00,0.0081
1960.00,0.0080
1959.00,0.0078
1958.00,0.0077
1957.00,0.0077
1956.00,0.0079
1955.00,0.0081
1954.00,0.0084
1953.00,0.0086
1952.00,0.0087
1951.00,0.0087
1950.00,0.0087
1949.00,0.0087
1948.00,0.0088
1947.00,0.0089
1946.00,0.0089
1945.00,0.0089
1944.00,0.0089
1943.00,0.0088
1942.00,0.0088
1941.00,0.0087
1940.00,0.0087
1939.00,0.0086
1938.00,0.0086
1937.00,0.0087
1936.00,0.0088
1935.00,0.0089
1934.00,0.0089
1933.00,0.0089
1932.00,0.0090
1931.00,0.0090
1930.00,0.0090
1929.00,0.0090
1928.00,0.0090
1927.00,0.0089
1926.00,0.0088
1925.00,0.0090
1924.00,0.0092
1923.00,0.0093
1922.00,0.0092
1921.00,0.0092
1920.00,0.0091
1919.00,0.0092
1918.00,0.0092
1917.00,0.0092
1916.00,0.0092
1915.00,0.0093
1914.00,0.0092
1913.00,0.0092
1912.00,0.0092
1911.00,0.0094
1910.00,0.0095
1909.00,0.0095
1908.00,0.0095
1907.00,0.0095
1906.00,0.0095
1905.00,0.0095
1904.00,0.0094
1903.00,0.0093
1902.00,0.0093
1901.00,0.0093
1900.00,0.0093
1899.00,0.0094
1898.00,0.0094
1897.00,0.0095
1896.00,0.0096
1895.00,0.0096
1894.00,0.0095
1893.00,0.0095
1892.00,0.0095
1891.00,0.0095
1890.00,0.0095
1889.00,0.0094
1888.00,0.0094
1887.00,0.0094
1886.00,0.0095
1885.00,0.0095
1884.00,0.0095
1883.00,0.0094
1882.00,0.0094
1881.00,0.0094
1880.00,0.0095
1879.00,0.0094
1878.00,0.0094
1877.00,0.0093
1876.00,0.0093
1875.00,0.0094
1874.00,0.0094
1873.00,0.0095
1872.00,0.0096
1871.00,0.0096
1870.00,0.0096
1869.00,0.0096
1868.00,0.0096
1867.00,0.0096
1866.00,0.0096
1865.00,0.0095
1864.00,0.0095
1863.00,0.0095
1862.00,0.0096
1861.00,0.0096
1860.00,0.0097
1859.00,0.0097
1858.00,0.0096
1857.00,0.0096
1856.00,0.0096
1855.00,0.0096
1854.00,0.0096
1853.00,0.0095
1852.00,0.0095
1851.00,0.0096
1850.00,0.0096
1849.00,0.0097
1848.00,0.0097
1847.00,0.0098
1846.00,0.0097
1845.00,0.0097
1844.00,0.0096
1843.00,0.0096
1842.00,0.0096
1841.00,0.0097
1840.00,0.0098
1839.00,0.0099
1838.00,0.0099
1837.00,0.0099
1836.00,0.0099
1835.00,0.0100
1834.00,0.0101
1833.00,0.0101
1832.00,0.0101
1831.00,0.0101
1830.00,0.0100
1829.00,0.0100
1828.00,0.0101
1827.00,0.0102
1826.00,0.0103
1825.00,0.0103
1824.00,0.0103
1823.00,0.0104
1822.00,0.0105
1821.00,0.0105
1820.00,0.0105
1819.00,0.0105
1818.00,0.0103
1817.00,0.0102
1816.00,0.0102
1815.00,0.0103
1814.00,0.0104
1813.00,0.0106
1812.00,0.0108
1811.00,0.0109
1810.00,0.0110
1809.00,0.0110
1808.00,0.0111
1807.00,0.0111
1806.00,0.0112
1805.00,0.0112
1804.00,0.0113
1803.00,0.0114
1802.00,0.0115
1801.00,0.0115
1800.00,0.0116
1799.00,0.0116
1798.00,0.0117
1797.00,0.0118
1796.00,0.0119
1795.00,0.0120
1794.00,0.0120
1793.00,0.0120
1792.00,0.0119
1791.00,0.0119
1790.00,0.0120
1789.00,0.0121
1788.00,0.0122
1787.00,0.0123
1786.00,0.0124
1785.00,0.0124
1784.00,0.0125
1783.00,0.0125
1782.00,0.0126
1781.00,0.0126
1780.00,0.0127
1779.00,0.0127
1778.00,0.0128
1777.00,0.0128
1776.00,0.0129
1775.00,0.0131
1774.00,0.0132
1773.00,0.0132
1772.00,0.0132
1771.00,0.0133
1770.00,0.0134
1769.00,0.0136
1768.00,0.0137
1767.00,0.0139
1766.00,0.0140
1765.00,0.0141
1764.00,0.0142
1763.00,0.0143
1762.00,0.0144
1761.00,0.0145
1760.00,0.0148
1759.00,0.0150
1758.00,0.0153
1757.00,0.0155
1756.00,0.0158
1755.00,0.0160
1754.00,0.0164
1753.00,0.0168
1752.00,0.0172
1751.00,0.0175
1750.00,0.0178
1749.00,0.0181
1748.00,0.0184
1747.00,0.0187
1746.00,0.0189
1745.00,0.0191
1744.00,0.0192
1743.00,0.0193
1742.00,0.0194
1741.00,0.0194
1740.00,0.0195
1739.00,0.0195
1738.00,0.0195
1737.00,0.0197
1736.00,0.0200
1735.00,0.0202
1734.00,0.0203
1733.00,0.0204
1732.00,0.0206
1731.00,0.0207
1730.00,0.0209
1729.00,0.0210
1728.00,0.0212
1727.00,0.0214
1726.00,0.0215
1725.00,0.0218
1724.00,0.0220
1723.00,0.0223
1722.00,0.0225
1721.00,0.0227
1720.00,0.0230
1719.00,0.0234
1718.00,0.0239
1717.00,0.0244
1716.00,0.0248
1715.00,0.0251
1714.00,0.0253
1713.00,0.0256
1712.00,0.0260
1711.00,0.0264
1710.00,0.0268
1709.00,0.0271
1708.00,0.0275
1707.00,0.0281
1706.00,0.0286
1705.00,0.0292
1704.00,0.0297
1703.00,0.0301
1702.00,0.0305
1701.00,0.0309
1700.00,0.0318
1699.00,0.0329
1698.00,0.0338
1697.00,0.0348
1696.00,0.0357
1695.00,0.0365
1694.00,0.0372
1693.00,0.0380
1692.00,0.0388
1691.00,0.0396
1690.00,0.0405
1689.00,0.0415
1688.00,0.0424
1687.00,0.0433
1686.00,0.0442
1685.00,0.0454
1684.00,0.0470
1683.00,0.0486
1682.00,0.0498
1681.00,0.0509
1680.00,0.0519
1679.00,0.0529
1678.00,0.0537
1677.00,0.0547
1676.00,0.0559
1675.00,0.0575
1674.00,0.0590
1673.00,0.0603
1672.00,0.0615
1671.00,0.0628
1670.00,0.0643
1669.00,0.0659
1668.00,0.0675
1667.00,0.0689
1666.00,0.0700
1665.00,0.0710
1664.00,0.0723
1663.00,0.0738
1662.00,0.0754
1661.00,0.0769
1660.00,0.0783
1659.00,0.0795
1658.00,0.0806
1657.00,0.0814
1656.00,0.0822
1655.00,0.0830
1654.00,0.0844
1653.00,0.0867
1652.00,0.0888
1651.00,0.0899
1650.00,0.0904
1649.00,0.0907
1648.00,0.0915
1647.00,0.0926
1646.00,0.0939
1645.00,0.0948
1644.00,0.0954
1643.00,0.0958
1642.00,0.0961
1641.00,0.0963
1640.00,0.0965
1639.00,0.0966
1638.00,0.0966
1637.00,0.0966
1636.00,0.0968
1635.00,0.0970
1634.00,0.0970
1633.00,0.0968
1632.00,0.0963
1631.00,0.0958
1630.00,0.0951
1629.00,0.0943
1628.00,0.0935
1627.00,0.0926
1626.00,0.0917
1625.00,0.0906
1624.00,0.0895
1623.00,0.0882
1622.00,0.0869
1621.00,0.0857
1620.00,0.0845
1619.00,0.0832
1618.00,0.0818
1617.00,0.0802
1616.00,0.0785
1615.00,0.0769
1614.00,0.0755
1613.00,0.0741
1612.00,0.0727
1611.00,0.0712
1610.00,0.0698
1609.00,0.0683
1608.00,0.0668
1607.00,0.0655
1606.00,0.0642
1605.00,0.0629
1604.00,0.0617
1603.00,0.0605
1602.00,0.0593
1601.00,0.0582
1600.00,0.0571
1599.00,0.0561
1598.00,0.0551
1597.00,0.0542
1596.00,0.0533
1595.00,0.0525
1594.00,0.0516
1593.00,0.0508
1592.00,0.0500
1591.00,0.0493
1590.00,0.0486
1589.00,0.0479
1588.00,0.0473
1587.00,0.0467
1586.00,0.0462
1585.00,0.0457
1584.00,0.0453
1583.00,0.0450
1582.00,0.0447
1581.00,0.0444
1580.00,0.0441
1579.00,0.0438
1578.00,0.0436
1577.00,0.0432
1576.00,0.0426
1575.00,0.0420
1574.00,0.0415
1573.00,0.0411
1572.00,0.0407
1571.00,0.0402
1570.00,0.0397
1569.00,0.0392
1568.00,0.0389
1567.00,0.0386
1566.00,0.0384
1565.00,0.0381
1564.00,0.0378
1563.00,0.0376
1562.00,0.0374
1561.00,0.0370
1560.00,0.0367
1559.00,0.0364
1558.00,0.0361
1557.00,0.0361
1556.00,0.0361
1555.00,0.0361
1554.00,0.0360
1553.00,0.0359
1552.00,0.0357
1551.00,0.0357
1550.00,0.0356
1549.00,0.0355
1548.00,0.0354
1547.00,0.0354
1546.00,0.0354
1545.00,0.0354
1544.00,0.0354
1543.00,0.0354
1542.00,0.0355
1541.00,0.0355
1540.00,0.0352
1539.00,0.0347
1538.00,0.0342
1537.00,0.0338
1536.00,0.0335
1535.00,0.0331
1534.00,0.0327
1533.00,0.0323
1532.00,0.0320
1531.00,0.0318
1530.00,0.0316
1529.00,0.0314
1528.00,0.0312
1527.00,0.0309
1526.00,0.0307
1525.00,0.0305
1524.00,0.0304
1523.00,0.0304
1522.00,0.0303
1521.00,0.0301
1520.00,0.0298
1519.00,0.0297
1518.00,0.0296
1517.00,0.0295
1516.00,0.0293
1515.00,0.0291
1514.00,0.0291
1513.00,0.0291
1512.00,0.0290
1511.00,0.0289
1510.00,0.0289
1509.00,0.0290
1508.00,0.0290
1507.00,0.0287
1506.00,0.0282
1505.00,0.0279
1504.00,0.0279
1503.00,0.0280
1502.00,0.0280
1501.00,0.0280
1500.00,0.0279
1499.00,0.0278
1498.00,0.0279
1497.00,0.0279
1496.00,0.0279
1495.00,0.0279
1494.00,0.0279
1493.00,0.0280
1492.00,0.0281
1491.00,0.0282
1490.00,0.0284
1489.00,0.0286
1488.00,0.0288
1487.00,0.0289
1486.00,0.0291
1485.00,0.0293
1484.00,0.0296
1483.00,0.0299
1482.00,0.0303
1481.00,0.0307
1480.00,0.0310
1479.00,0.0314
1478.00,0.0317
1477.00,0.0321
1476.00,0.0325
1475.00,0.0328
1474.00,0.0332
1473.00,0.0335
1472.00,0.0337
1471.00,0.0339
1470.00,0.0341
1469.00,0.0343
1468.00,0.0345
1467.00,0.0346
1466.00,0.0346
1465.00,0.0347
1464.00,0.0347
1463.00,0.0347
1462.00,0.0348
1461.00,0.0348
1460.00,0.0348
1459.00,0.0349
1458.00,0.0350
1457.00,0.0352
1456.00,0.0353
1455.00,0.0353
1454.00,0.0354
1453.00,0.0354
1452.00,0.0353
1451.00,0.0352
1450.00,0.0351
1449.00,0.0351
1448.00,0.0350
1447.00,0.0351
1446.00,0.0351
1445.00,0.0352
1444.00,0.0353
1443.00,0.0354
1442.00,0.0355
1441.00,0.0357
1440.00,0.0358
1439.00,0.0359
1438.00,0.0360
1437.00,0.0361
1436.00,0.0363
1435.00,0.0365
1434.00,0.0367
1433.00,0.0369
1432.00,0.0369
1431.00,0.0370
1430.00,0.0370
1429.00,0.0371
1428.00,0.0371
1427.00,0.0372
1426.00,0.0373
1425.00,0.0374
1424.00,0.0375
1423.00,0.0376
1422.00,0.0376
1421.00,0.0376
1420.00,0.0376
1419.00,0.0376
1418.00,0.0376
1417.00,0.0376
1416.00,0.0376
1415.00,0.0376
1414.00,0.0376
1413.00,0.0376
1412.00,0.0376
1411.00,0.0376
1410.00,0.0376
1409.00,0.0376
1408.00,0.0375
1407.00,0.0375
1406.00,0.0375
1405.00,0.0375
1404.00,0.0374
1403.00,0.0374
1402.00,0.0373
1401.00,0.0372
1400.00,0.0372
1399.00,0.0371
1398.00,0.0370
1397.00,0.0369
1396.00,0.0368
1395.00,0.0367
1394.00,0.0367
1393.00,0.0367
1392.00,0.0369
1391.00,0.0371
1390.00,0.0373
1389.00,0.0377
1388.00,0.0382
1387.00,0.0388
1386.00,0.0394
1385.00,0.0401
1384.00,0.0407
1383.00,0.0413
1382.00,0.0419
1381.00,0.0424
1380.00,0.0429
1379.00,0.0434
1378.00,0.0437
1377.00,0.0439
1376.00,0.0441
1375.00,0.0441
1374.00,0.0441
1373.00,0.0441
1372.00,0.0440
1371.00,0.0439
1370.00,0.0437
1369.00,0.0435
1368.00,0.0433
1367.00,0.0430
1366.00,0.0427
1365.00,0.0426
1364.00,0.0424
1363.00,0.0422
1362.00,0.0421
1361.00,0.0420
1360.00,0.0420
1359.00,0.0420
1358.00,0.0420
1357.00,0.0420
1356.00,0.0420
1355.00,0.0419
1354.00,0.0419
1353.00,0.0417
1352.00,0.0415
1351.00,0.0413
1350.00,0.0410
1349.00,0.0406
1348.00,0.0403
1347.00,0.0399
1346.00,0.0396
1345.00,0.0393
1344.00,0.0390
1343.00,0.0388
1342.00,0.0387
1341.00,0.0387
1340.00,0.0386
1339.00,0.0386
1338.00,0.0385
1337.00,0.0384
1336.00,0.0383
1335.00,0.0382
1334.00,0.0381
1333.00,0.0381
1332.00,0.0381
1331.00,0.0381
1330.00,0.0381
1329.00,0.0381
1328.00,0.0381
1327.00,0.0382
1326.00,0.0383
1325.00,0.0384
1324.00,0.0386
1323.00,0.0387
1322.00,0.0388
1321.00,0.0389
1320.00,0.0391
1319.00,0.0392
1318.00,0.0393
1317.00,0.0394
1316.00,0.0395
1315.00,0.0396
1314.00,0.0397
1313.00,0.0398
1312.00,0.0400
1311.00,0.0400
1310.00,0.0401
1309.00,0.0403
1308.00,0.0404
1307.00,0.0406
1306.00,0.0409
1305.00,0.0411
1304.00,0.0414
1303.00,0.0416
1302.00,0.0419
1301.00,0.0423
1300.00,0.0427
1299.00,0.0431
1298.00,0.0437
1297.00,0.0443
1296.00,0.0450
1295.00,0.0457
1294.00,0.0466
1293.00,0.0475
1292.00,0.0485
1291.00,0.0495
1290.00,0.0505
1289.00,0.0516
1288.00,0.0527
1287.00,0.0538
1286.00,0.0550
1285.00,0.0563
1284.00,0.0576
1283.00,0.0590
1282.00,0.0604
1281.00,0.0620
1280.00,0.0635
1279.00,0.0652
1278.00,0.0668
1277.00,0.0685
1276.00,0.0703
1275.00,0.0720
1274.00,0.0739
1273.00,0.0758
1272.00,0.0777
1271.00,0.0796
1270.00,0.0815
1269.00,0.0832
1268.00,0.0849
1267.00,0.0864
1266.00,0.0879
1265.00,0.0894
1264.00,0.0907
1263.00,0.0920
1262.00,0.0932
1261.00,0.0943
1260.00,0.0952
1259.00,0.0961
1258.00,0.0969
1257.00,0.0977
1256.00,0.0984
1255.00,0.0990
1254.00,0.0995
1253.00,0.1001
1252.00,0.1005
1251.00,0.1009
1250.00,0.1013
1249.00,0.1015
1248.00,0.1018
1247.00,0.1020
1246.00,0.1023
1245.00,0.1026
1244.00,0.1031
1243.00,0.1035
1242.00,0.1040
1241.00,0.1045
1240.00,0.1050
1239.00,0.1056
1238.00,0.1063
1237.00,0.1069
1236.00,0.1075
1235.00,0.1080
1234.00,0.1085
1233.00,0.1089
1232.00,0.1093
1231.00,0.1096
1230.00,0.1098
1229.00,0.1100
1228.00,0.1101
1227.00,0.1102
1226.00,0.1101
1225.00,0.1100
1224.00,0.1099
1223.00,0.1097
1222.00,0.1094
1221.00,0.1092
1220.00,0.1088
1219.00,0.1084
1218.00,0.1078
1217.00,0.1072
1216.00,0.1065
1215.00,0.1057
1214.00,0.1049
1213.00,0.1040
1212.00,0.1032
1211.00,0.1022
1210.00,0.1012
1209.00,0.1002
1208.00,0.0992
1207.00,0.0981
1206.00,0.0971
1205.00,0.0961
1204.00,0.0952
1203.00,0.0943
1202.00,0.0935
1201.00,0.0928
1200.00,0.0923
1199.00,0.0921
1198.00,0.0922
1197.00,0.0924
1196.00,0.0929
1195.00,0.0934
1194.00,0.0940
1193.00,0.0946
1192.00,0.0951
1191.00,0.0954
1190.00,0.0955
1189.00,0.0954
1188.00,0.0952
1187.00,0.0949
1186.00,0.0947
1185.00,0.0946
1184.00,0.0946
1183.00,0.0947
1182.00,0.0949
1181.00,0.0953
1180.00,0.0960
1179.00,0.0968
1178.00,0.0978
1177.00,0.0990
1176.00,0.1002
1175.00,0.1016
1174.00,0.1031
1173.00,0.1047
1172.00,0.1065
1171.00,0.1084
1170.00,0.1104
1169.00,0.1126
1168.00,0.1150
1167.00,0.1175
1166.00,0.1201
1165.00,0.1226
1164.00,0.1250
1163.00,0.1273
1162.00,0.1293
1161.00,0.1310
1160.00,0.1326
1159.00,0.1338
1158.00,0.1348
1157.00,0.1355
1156.00,0.1359
1155.00,0.1361
1154.00,0.1360
1153.00,0.1358
1152.00,0.1354
1151.00,0.1349
1150.00,0.1342
1149.00,0.1334
1148.00,0.1326
1147.00,0.1317
1146.00,0.1308
1145.00,0.1300
1144.00,0.1294
1143.00,0.1289
1142.00,0.1285
1141.00,0.1284
1140.00,0.1286
1139.00,0.1291
1138.00,0.1299
1137.00,0.1313
1136.00,0.1330
1135.00,0.1352
1134.00,0.1376
1133.00,0.1403
1132.00,0.1431
1131.00,0.1458
1130.00,0.1484
1129.00,0.1506
1128.00,0.1523
1127.00,0.1536
1126.00,0.1544
1125.00,0.1548
1124.00,0.1549
1123.00,0.1547
1122.00,0.1542
1121.00,0.1538
1120.00,0.1534
1119.00,0.1531
1118.00,0.1529
1117.00,0.1527
1116.00,0.1526
1115.00,0.1524
1114.00,0.1522
1113.00,0.1519
1112.00,0.1517
1111.00,0.1513
1110.00,0.1510
1109.00,0.1507
1108.00,0.1505
1107.00,0.1504
1106.00,0.1505
1105.00,0.1508
1104.00,0.1513
1103.00,0.1519
1102.00,0.1528
1101.00,0.1539
1100.00,0.1553
1099.00,0.1568
1098.00,0.1585
1097.00,0.1601
1096.00,0.1615
1095.00,0.1627
1094.00,0.1636
1093.00,0.1643
1092.00,0.1649
1091.00,0.1654
1090.00,0.1659
1089.00,0.1666
1088.00,0.1674
1087.00,0.1683
1086.00,0.1694
1085.00,0.1706
1084.00,0.1721
1083.00,0.1737
1082.00,0.1755
1081.00,0.1777
1080.00,0.1801
1079.00,0.1827
1078.00,0.1856
1077.00,0.1885
1076.00,0.1914
1075.00,0.1943
1074.00,0.1971
1073.00,0.1998
1072.00,0.2025
1071.00,0.2050
1070.00,0.2073
1069.00,0.2093
1068.00,0.2108
1067.00,0.2114
1066.00,0.2110
1065.00,0.2097
1064.00,0.2075
1063.00,0.2046
1062.00,0.2012
1061.00,0.1977
1060.00,0.1944
1059.00,0.1916
1058.00,0.1894
1057.00,0.1880
1056.00,0.1872
1055.00,0.1868
1054.00,0.1868
1053.00,0.1871
1052.00,0.1875
1051.00,0.1881
1050.00,0.1888
1049.00,0.1899
1048.00,0.1913
1047.00,0.1931
1046.00,0.1953
1045.00,0.1978
1044.00,0.2002
1043.00,0.2024
1042.00,0.2040
1041.00,0.2050
1040.00,0.2054
1039.00,0.2050
1038.00,0.2042
1037.00,0.2031
1036.00,0.2018
1035.00,0.2006
1034.00,0.1995
1033.00,0.1988
1032.00,0.1984
1031.00,0.1981
1030.00,0.1977
1029.00,0.1969
1028.00,0.1956
1027.00,0.1934
1026.00,0.1906
1025.00,0.1871
1024.00,0.1829
1023.00,0.1783
1022.00,0.1734
1021.00,0.1684
1020.00,0.1634
1019.00,0.1584
1018.00,0.1536
1017.00,0.1493
1016.00,0.1455
1015.00,0.1421
1014.00,0.1393
1013.00,0.1371
1012.00,0.1355
1011.00,0.1345
1010.00,0.1341
1009.00,0.1342
1008.00,0.1346
1007.00,0.1352
1006.00,0.1357
1005.00,0.1361
1004.00,0.1360
1003.00,0.1351
1002.00,0.1335
1001.00,0.1311
1000.00,0.1281
999.00,0.1247
998.00,0.1212
997.00,0.1180
996.00,0.1151
995.00,0.1128
994.00,0.1110
993.00,0.1095
992.00,0.1084
991.00,0.1073
990.00,0.1062
989.00,0.1052
988.00,0.1040
987.00,0.1026
986.00,0.1009
985.00,0.0991
984.00,0.0972
983.00,0.0954
982.00,0.0939
981.00,0.0927
980.00,0.0918
979.00,0.0911
978.00,0.0908
977.00,0.0908
976.00,0.0909
975.00,0.0913
974.00,0.0920
973.00,0.0928
972.00,0.0937
971.00,0.0945
970.00,0.0949
969.00,0.0949
968.00,0.0942
967.00,0.0928
966.00,0.0908
965.00,0.0885
964.00,0.0862
963.00,0.0840
962.00,0.0822
961.00,0.0808
960.00,0.0798
959.00,0.0792
958.00,0.0790
957.00,0.0792
956.00,0.0796
955.00,0.0803
954.00,0.0812
953.00,0.0822
952.00,0.0835
951.00,0.0848
950.00,0.0863
949.00,0.0879
948.00,0.0895
947.00,0.0913
946.00,0.0932
945.00,0.0953
944.00,0.0976
943.00,0.1002
942.00,0.1031
941.00,0.1065
940.00,0.1104
939.00,0.1147
938.00,0.1196
937.00,0.1246
936.00,0.1297
935.00,0.1346
934.00,0.1392
933.00,0.1434
932.00,0.1472
931.00,0.1506
930.00,0.1537
929.00,0.1565
928.00,0.1591
927.00,0.1613
926.00,0.1631
925.00,0.1646
924.00,0.1658
923.00,0.1666
922.00,0.1673
921.00,0.1678
920.00,0.1681
919.00,0.1682
918.00,0.1681
917.00,0.1678
916.00,0.1672
915.00,0.1664
914.00,0.1653
913.00,0.1640
912.00,0.1625
911.00,0.1608
910.00,0.1589
909.00,0.1568
908.00,0.1547
907.00,0.1525
906.00,0.1505
905.00,0.1488
904.00,0.1471
903.00,0.1456
902.00,0.1442
901.00,0.1431
900.00,0.1421
899.00,0.1413
898.00,0.1405
897.00,0.1398
896.00,0.1393
895.00,0.1387
894.00,0.1382
893.00,0.1378
892.00,0.1373
891.00,0.1367
890.00,0.1360
889.00,0.1351
888.00,0.1339
887.00,0.1323
886.00,0.1303
885.00,0.1278
884.00,0.1250
883.00,0.1220
882.00,0.1193
881.00,0.1168
880.00,0.1148
879.00,0.1133
878.00,0.1123
877.00,0.1118
876.00,0.1116
875.00,0.1115
874.00,0.1114
873.00,0.1111
872.00,0.1104
871.00,0.1096
870.00,0.1086
869.00,0.1076
868.00,0.1067
867.00,0.1060
866.00,0.1055
865.00,0.1053
864.00,0.1053
863.00,0.1056
862.00,0.1063
861.00,0.1072
860.00,0.1083
859.00,0.1097
858.00,0.1114
857.00,0.1135
856.00,0.1159
855.00,0.1186
854.00,0.1216
853.00,0.1247
852.00,0.1279
851.00,0.1309
850.00,0.1337
849.00,0.1361
848.00,0.1379
847.00,0.1392
846.00,0.1398
845.00,0.1397
844.00,0.1389
843.00,0.1374
842.00,0.1353
841.00,0.1327
840.00,0.1297
839.00,0.1265
838.00,0.1233
837.00,0.1201
836.00,0.1171
835.00,0.1144
834.00,0.1120
833.00,0.1100
832.00,0.1082
831.00,0.1066
830.00,0.1052
829.00,0.1040
828.00,0.1030
827.00,0.1022
826.00,0.1016
825.00,0.1013
824.00,0.1011
823.00,0.1010
822.00,0.1010
821.00,0.1010
820.00,0.1010
819.00,0.1011
818.00,0.1013
817.00,0.1015
816.00,0.1019
815.00,0.1024
814.00,0.1029
813.00,0.1035
812.00,0.1041
811.00,0.1050
810.00,0.1059
809.00,0.1070
808.00,0.1080
807.00,0.1090
806.00,0.1100
805.00,0.1109
804.00,0.1117
803.00,0.1125
802.00,0.1132
801.00,0.1137
800.00,0.1141
799.00,0.1144
798.00,0.1145
797.00,0.1146
796.00,0.1145
795.00,0.1143
794.00,0.1142
793.00,0.1140
792.00,0.1137
791.00,0.1133
790.00,0.1131
789.00,0.1129
788.00,0.1129
787.00,0.1130
786.00,0.1132
785.00,0.1136
784.00,0.1140
783.00,0.1144
782.00,0.1150
781.00,0.1158
780.00,0.1167
779.00,0.1178
778.00,0.1190
777.00,0.1202
776.00,0.1212
775.00,0.1221
774.00,0.1229
773.00,0.1235
772.00,0.1238
771.00,0.1239
770.00,0.1236
769.00,0.1233
768.00,0.1230
767.00,0.1228
766.00,0.1229
765.00,0.1232
764.00,0.1236
763.00,0.1240
762.00,0.1245
761.00,0.1251
760.00,0.1257
759.00,0.1264
758.00,0.1271
757.00,0.1280
756.00,0.1289
755.00,0.1301
754.00,0.1316
753.00,0.1332
752.00,0.1350
751.00,0.1370
750.00,0.1392
749.00,0.1416
748.00,0.1439
747.00,0.1462
746.00,0.1483
745.00,0.1503
744.00,0.1521
743.00,0.1536
742.00,0.1550
741.00,0.1563
740.00,0.1575
739.00,0.1588
738.00,0.1601
737.00,0.1612
736.00,0.1621
735.00,0.1628
734.00,0.1635
733.00,0.1640
732.00,0.1644
731.00,0.1649
730.00,0.1654
729.00,0.1660
728.00,0.1667
727.00,0.1675
726.00,0.1682
725.00,0.1687
724.00,0.1689
723.00,0.1689
722.00,0.1687
721.00,0.1686
720.00,0.1684
719.00,0.1682
718.00,0.1680
717.00,0.1678
716.00,0.1679
715.00,0.1684
714.00,0.1693
713.00,0.1705
712.00,0.1719
711.00,0.1734
710.00,0.1750
709.00,0.1767
708.00,0.1785
707.00,0.1804
706.00,0.1821
705.00,0.1836
704.00,0.1848
703.00,0.1856
702.00,0.1863
701.00,0.1867
700.00,0.1867
699.00,0.1863
698.00,0.1856
697.00,0.1847
696.00,0.1836
695.00,0.1825
694.00,0.1814
693.00,0.1802
692.00,0.1791
691.00,0.1780
690.00,0.1770
689.00,0.1761
688.00,0.1753
687.00,0.1746
686.00,0.1741
685.00,0.1738
684.00,0.1735
683.00,0.1732
682.00,0.1728
681.00,0.1726
680.00,0.1725
679.00,0.1726
678.00,0.1729
677.00,0.1733
676.00,0.1738
675.00,0.1744
674.00,0.1750
673.00,0.1756
672.00,0.1759
671.00,0.1758
670.00,0.1757
669.00,0.1759
668.00,0.1768
667.00,0.1781
666.00,0.1791
665.00,0.1795
664.00,0.1796
663.00,0.1796
662.00,0.1796
661.00,0.1797
660.00,0.1799
659.00,0.1801
658.00,0.1804
657.00,0.1806
656.00,0.1807
655.00,0.1807
654.00,0.1808
653.00,0.1811
652.00,0.1814
651.00,0.1816
650.00,0.1818
649.00,0.1821
648.00,0.1824
647.00,0.1828
646.00,0.1831
645.00,0.1834
644.00,0.1836
643.00,0.1840
642.00,0.1845
641.00,0.1851
640.00,0.1857
639.00,0.1864
638.00,0.1873
637.00,0.1881
636.00,0.1890
635.00,0.1900
634.00,0.1910
633.00,0.1919
632.00,0.1927
631.00,0.1937
630.00,0.1949
629.00,0.1963
628.00,0.1978
627.00,0.1995
626.00,0.2013
625.00,0.2031
624.00,0.2048
623.00,0.2065
622.00,0.2081
621.00,0.2095
620.00,0.2107
619.00,0.2117
618.00,0.2127
617.00,0.2138
616.00,0.2149
615.00,0.2161
614.00,0.2174
613.00,0.2187
612.00,0.2200
611.00,0.2212
610.00,0.2224
609.00,0.2237
608.00,0.2250
607.00,0.2263
606.00,0.2274
605.00,0.2283
604.00,0.2289
603.00,0.2294
602.00,0.2298
601.00,0.2302
600.00,0.2307
599.00,0.2311
598.00,0.2318
597.00,0.2326
596.00,0.2336
595.00,0.2349
594.00,0.2363
593.00,0.2379
592.00,0.2397
591.00,0.2412
590.00,0.2426
589.00,0.2439
588.00,0.2456
587.00,0.2477
586.00,0.2498
585.00,0.2518
584.00,0.2536
583.00,0.2554
582.00,0.2574
581.00,0.2596
580.00,0.2620
579.00,0.2642
578.00,0.2659
577.00,0.2673
576.00,0.2685
575.00,0.2698
574.00,0.2711
573.00,0.2725
572.00,0.2738
571.00,0.2752
570.00,0.2766
569.00,0.2779
568.00,0.2791
567.00,0.2799
566.00,0.2806
565.00,0.2815
564.00,0.2825
563.00,0.2835
562.00,0.2845
561.00,0.2853
560.00,0.2860
559.00,0.2867
558.00,0.2874
557.00,0.2882
556.00,0.2888
555.00,0.2891
554.00,0.2892
553.00,0.2895
552.00,0.2900
551.00,0.2907
550.00,0.2914
549.00,0.2920
548.00,0.2927
547.00,0.2935
546.00,0.2944
545.00,0.2952
544.00,0.2958
543.00,0.2963
542.00,0.2967
541.00,0.2970
540.00,0.2969
539.00,0.2966
538.00,0.2962
537.00,0.2959
536.00,0.2957
535.00,0.2954
534.00,0.2948
533.00,0.2939
532.00,0.2930
531.00,0.2920
530.00,0.2912
529.00,0.2908
528.00,0.2909
527.00,0.2914
526.00,0.2919
525.00,0.2925
524.00,0.2930
523.00,0.2936
522.00,0.2939
521.00,0.2940
520.00,0.2938
519.00,0.2935
518.00,0.2933
517.00,0.2932
516.00,0.2933
515.00,0.2934
514.00,0.2935
513.00,0.2934
512.00,0.2934
511.00,0.2932
510.00,0.2927
509.00,0.2921
508.00,0.2917
507.00,0.2917
506.00,0.2920
505.00,0.2921
504.00,0.2918
503.00,0.2912
502.00,0.2908
501.00,0.2907
500.00,0.2906
499.00,0.2904
498.00,0.2901
497.00,0.2899
496.00,0.2902
495.00,0.2909
494.00,0.2917
493.00,0.2923
492.00,0.2927
491.00,0.2930
490.00,0.2931
489.00,0.2931
488.00,0.2933
487.00,0.2939
486.00,0.2946
485.00,0.2951
484.00,0.2951
483.00,0.2946
482.00,0.2942
481.00,0.2942
480.00,0.2948
479.00,0.2959
478.00,0.2967
477.00,0.2968
476.00,0.2963
475.00,0.2956
474.00,0.2948
473.00,0.2942
472.00,0.2937
471.00,0.2935
470.00,0.2936
469.00,0.2939
468.00,0.2943
467.00,0.2946
466.00,0.2949
465.00,0.2951
464.00,0.2955
463.00,0.2962
462.00,0.2969
461.00,0.2971
460.00,0.2969
459.00,0.2971
458.00,0.2983
457.00,0.2996
456.00,0.3001
455.00,0.2986
454.00,0.2965
453.00,0.2952
452.00,0.2953
451.00,0.2966
450.00,0.2984
