Created as New Dataset,Sample 008 By Administrator Date Friday, May 30 2025
cm-1,A
4000.00,0.0094
3999.00,0.0094
3998.00,0.0094
3997.00,0.0095
3996.00,0.0095
3995.00,0.0095
3994.00,0.0096
3993.00,0.0096
3992.00,0.0096
3991.00,0.0095
3990.00,0.0095
3989.00,0.0095
3988.00,0.0095
3987.00,0.0095
3986.00,0.0096
3985.00,0.0096
3984.00,0.0096
3983.00,0.0096
3982.00,0.0096
3981.00,0.0096
3980.00,0.0096
3979.00,0.0097
3978.00,0.0097
3977.00,0.0097
3976.00,0.0097
3975.00,0.0097
3974.00,0.0097
3973.00,0.0097
3972.00,0.0097
3971.00,0.0097
3970.00,0.0097
3969.00,0.0097
3968.00,0.0097
3967.00,0.0097
3966.00,0.0097
3965.00,0.0097
3964.00,0.0097
3963.00,0.0097
3962.00,0.0097
3961.00,0.0097
3960.00,0.0096
3959.00,0.0096
3958.00,0.0097
3957.00,0.0097
3956.00,0.0097
3955.00,0.0097
3954.00,0.0097
3953.00,0.0097
3952.00,0.0097
3951.00,0.0097
3950.00,0.0097
3949.00,0.0097
3948.00,0.0097
3947.00,0.0097
3946.00,0.0097
3945.00,0.0097
3944.00,0.0097
3943.00,0.0097
3942.00,0.0097
3941.00,0.0097
3940.00,0.0097
3939.00,0.0097
3938.00,0.0097
3937.00,0.0097
3936.00,0.0098
3935.00,0.0098
3934.00,0.0099
3933.00,0.0099
3932.00,0.0098
3931.00,0.0097
3930.00,0.0097
3929.00,0.0097
3928.00,0.0097
3927.00,0.0097
3926.00,0.0098
3925.00,0.0098
3924.00,0.0097
3923.00,0.0097
3922.00,0.0097
3921.00,0.0097
3920.00,0.0097
3919.00,0.0097
3918.00,0.0098
3917.00,0.0098
3916.00,0.0097
3915.00,0.0097
3914.00,0.0097
3913.00,0.0097
3912.00,0.0097
3911.00,0.0097
3910.00,0.0097
3909.00,0.0097
3908.00,0.0098
3907.00,0.0098
3906.00,0.0098
3905.00,0.0099
3904.00,0.0099
3903.00,0.0099
3902.00,0.0098
3901.00,0.0097
3900.00,0.0097
3899.00,0.0096
3898.00,0.0096
3897.00,0.0097
3896.00,0.0097
3895.00,0.0097
3894.00,0.0097
3893.00,0.0097
3892.00,0.0096
3891.00,0.0096
3890.00,0.0096
3889.00,0.0096
3888.00,0.0097
3887.00,0.0097
3886.00,0.0098
3885.00,0.0098
3884.00,0.0098
3883.00,0.0099
3882.00,0.0099
3881.00,0.0098
3880.00,0.0098
3879.00,0.0097
3878.00,0.0098
3877.00,0.0098
3876.00,0.0099
3875.00,0.0099
3874.00,0.0099
3873.00,0.0098
3872.00,0.0098
3871.00,0.0098
3870.00,0.0098
3869.00,0.0098
3868.00,0.0098
3867.00,0.0098
3866.00,0.0098
3865.00,0.0098
3864.00,0.0098
3863.00,0.0098
3862.00,0.0098
3861.00,0.0098
3860.00,0.0099
3859.00,0.0099
3858.00,0.0099
3857.00,0.0099
3856.00,0.0099
3855.00,0.0100
3854.00,0.0100
3853.00,0.0099
3852.00,0.0098
3851.00,0.0098
3850.00,0.0098
3849.00,0.0098
3848.00,0.0098
3847.00,0.0098
3846.00,0.0098
3845.00,0.0099
3844.00,0.0099
3843.00,0.0099
3842.00,0.0099
3841.00,0.0099
3840.00,0.0098
3839.00,0.0098
3838.00,0.0098
3837.00,0.0098
3836.00,0.0098
3835.00,0.0098
3834.00,0.0098
3833.00,0.0098
3832.00,0.0098
3831.00,0.0098
3830.00,0.0099
3829.00,0.0099
3828.00,0.0099
3827.00,0.0099
3826.00,0.0100
3825.00,0.0100
3824.00,0.0100
3823.00,0.0101
3822.00,0.0100
3821.00,0.0100
3820.00,0.0099
3819.00,0.0100
3818.00,0.0100
3817.00,0.0100
3816.00,0.0100
3815.00,0.0100
3814.00,0.0100
3813.00,0.0100
3812.00,0.0100
3811.00,0.0100
3810.00,0.0100
3809.00,0.0100
3808.00,0.0100
3807.00,0.0101
3806.00,0.0101
3805.00,0.0101
3804.00,0.0101
3803.00,0.0102
3802.00,0.0102
3801.00,0.0101
3800.00,0.0101
3799.00,0.0101
3798.00,0.0101
3797.00,0.0101
3796.00,0.0101
3795.00,0.0101
3794.00,0.0101
3793.00,0.0102
3792.00,0.0102
3791.00,0.0102
3790.00,0.0102
3789.00,0.0102
3788.00,0.0103
3787.00,0.0103
3786.00,0.0104
3785.00,0.0104
3784.00,0.0104
3783.00,0.0104
3782.00,0.0104
3781.00,0.0104
3780.00,0.0103
3779.00,0.0103
3778.00,0.0103
3777.00,0.0103
3776.00,0.0103
3775.00,0.0104
3774.00,0.0104
3773.00,0.0105
3772.00,0.0105
3771.00,0.0106
3770.00,0.0106
3769.00,0.0105
3768.00,0.0105
3767.00,0.0105
3766.00,0.0105
3765.00,0.0105
3764.00,0.0106
3763.00,0.0106
3762.00,0.0107
3761.00,0.0107
3760.00,0.0107
3759.00,0.0107
3758.00,0.0107
3757.00,0.0108
3756.00,0.0108
3755.00,0.0108
3754.00,0.0108
3753.00,0.0109
3752.00,0.0109
3751.00,0.0110
3750.00,0.0111
3749.00,0.0111
3748.00,0.0110
3747.00,0.0109
3746.00,0.0108
3745.00,0.0108
3744.00,0.0108
3743.00,0.0109
3742.00,0.0110
3741.00,0.0111
3740.00,0.0111
3739.00,0.0111
3738.00,0.0111
3737.00,0.0112
3736.00,0.0112
3735.00,0.0112
3734.00,0.0111
3733.00,0.0111
3732.00,0.0111
3731.00,0.0111
3730.00,0.0112
3729.00,0.0113
3728.00,0.0113
3727.00,0.0114
3726.00,0.0114
3725.00,0.0115
3724.00,0.0115
3723.00,0.0116
3722.00,0.0117
3721.00,0.0118
3720.00,0.0118
3719.00,0.0119
3718.00,0.0119
3717.00,0.0120
3716.00,0.0120
3715.00,0.0121
3714.00,0.0122
3713.00,0.0123
3712.00,0.0124
3711.00,0.0124
3710.00,0.0124
3709.00,0.0124
3708.00,0.0125
3707.00,0.0125
3706.00,0.0126
3705.00,0.0127
3704.00,0.0128
3703.00,0.0129
3702.00,0.0130
3701.00,0.0131
3700.00,0.0132
3699.00,0.0133
3698.00,0.0134
3697.00,0.0135
3696.00,0.0137
3695.00,0.0138
3694.00,0.0139
3693.00,0.0141
3692.00,0.0142
3691.00,0.0144
3690.00,0.0145
3689.00,0.0146
3688.00,0.0148
3687.00,0.0149
3686.00,0.0152
3685.00,0.0153
3684.00,0.0155
3683.00,0.0157
3682.00,0.0159
3681.00,0.0161
3680.00,0.0162
3679.00,0.0164
3678.00,0.0166
3677.00,0.0169
3676.00,0.0172
3675.00,0.0175
3674.00,0.0177
3673.00,0.0180
3672.00,0.0183
3671.00,0.0187
3670.00,0.0191
3669.00,0.0195
3668.00,0.0199
3667.00,0.0202
3666.00,0.0206
3665.00,0.0210
3664.00,0.0214
3663.00,0.0217
3662.00,0.0221
3661.00,0.0224
3660.00,0.0228
3659.00,0.0231
3658.00,0.0235
3657.00,0.0240
3656.00,0.0246
3655.00,0.0251
3654.00,0.0255
3653.00,0.0258
3652.00,0.0262
3651.00,0.0267
3650.00,0.0274
3649.00,0.0283
3648.00,0.0290
3647.00,0.0296
3646.00,0.0301
3645.00,0.0306
3644.00,0.0310
3643.00,0.0315
3642.00,0.0320
3641.00,0.0325
3640.00,0.0330
3639.00,0.0336
3638.00,0.0341
3637.00,0.0347
3636.00,0.0353
3635.00,0.0358
3634.00,0.0364
3633.00,0.0368
3632.00,0.0372
3631.00,0.0378
3630.00,0.0386
3629.00,0.0395
3628.00,0.0405
3627.00,0.0412
3626.00,0.0418
3625.00,0.0423
3624.00,0.0427
3623.00,0.0431
3622.00,0.0436
3621.00,0.0441
3620.00,0.0448
3619.00,0.0455
3618.00,0.0462
3617.00,0.0469
3616.00,0.0476
3615.00,0.0482
3614.00,0.0488
3613.00,0.0494
3612.00,0.0499
3611.00,0.0505
3610.00,0.0512
3609.00,0.0520
3608.00,0.0528
3607.00,0.0536
3606.00,0.0542
3605.00,0.0547
3604.00,0.0552
3603.00,0.0556
3602.00,0.0562
3601.00,0.0568
3600.00,0.0574
3599.00,0.0579
3598.00,0.0585
3597.00,0.0590
3596.00,0.0597
3595.00,0.0603
3594.00,0.0610
3593.00,0.0616
3592.00,0.0621
3591.00,0.0626
3590.00,0.0630
3589.00,0.0636
3588.00,0.0643
3587.00,0.0652
3586.00,0.0660
3585.00,0.0667
3584.00,0.0673
3583.00,0.0678
3582.00,0.0682
3581.00,0.0687
3580.00,0.0693
3579.00,0.0698
3578.00,0.0704
3577.00,0.0710
3576.00,0.0716
3575.00,0.0721
3574.00,0.0726
3573.00,0.0731
3572.00,0.0736
3571.00,0.0740
3570.00,0.0744
3569.00,0.0749
3568.00,0.0756
3567.00,0.0765
3566.00,0.0774
3565.00,0.0781
3564.00,0.0788
3563.00,0.0793
3562.00,0.0798
3561.00,0.0803
3560.00,0.0808
3559.00,0.0813
3558.00,0.0818
3557.00,0.0823
3556.00,0.0828
3555.00,0.0832
3554.00,0.0838
3553.00,0.0844
3552.00,0.0850
3551.00,0.0856
3550.00,0.0861
3549.00,0.0865
3548.00,0.0870
3547.00,0.0876
3546.00,0.0882
3545.00,0.0889
3544.00,0.0895
3543.00,0.0901
3542.00,0.0906
3541.00,0.0911
3540.00,0.0916
3539.00,0.0921
3538.00,0.0926
3537.00,0.0932
3536.00,0.0937
3535.00,0.0942
3534.00,0.0947
3533.00,0.0952
3532.00,0.0957
3531.00,0.0962
3530.00,0.0967
3529.00,0.0972
3528.00,0.0978
3527.00,0.0984
3526.00,0.0990
3525.00,0.0996
3524.00,0.1002
3523.00,0.1007
3522.00,0.1013
3521.00,0.1018
3520.00,0.1023
3519.00,0.1028
3518.00,0.1033
3517.00,0.1038
3516.00,0.1043
3515.00,0.1048
3514.00,0.1053
3513.00,0.1058
3512.00,0.1063
3511.00,0.1068
3510.00,0.1073
3509.00,0.1079
3508.00,0.1084
3507.00,0.1089
3506.00,0.1094
3505.00,0.1099
3504.00,0.1104
3503.00,0.1110
3502.00,0.1116
3501.00,0.1122
3500.00,0.1127
3499.00,0.1132
3498.00,0.1136
3497.00,0.1141
3496.00,0.1146
3495.00,0.1151
3494.00,0.1156
3493.00,0.1161
3492.00,0.1165
3491.00,0.1170
3490.00,0.1175
3489.00,0.1181
3488.00,0.1186
3487.00,0.1190
3486.00,0.1195
3485.00,0.1199
3484.00,0.1203
3483.00,0.1208
3482.00,0.1214
3481.00,0.1220
3480.00,0.1225
3479.00,0.1230
3478.00,0.1233
3477.00,0.1237
3476.00,0.1241
3475.00,0.1246
3474.00,0.1250
3473.00,0.1255
3472.00,0.1260
3471.00,0.1265
3470.00,0.1270
3469.00,0.1275
3468.00,0.1279
3467.00,0.1284
3466.00,0.1288
3465.00,0.1292
3464.00,0.1296
3463.00,0.1300
3462.00,0.1304
3461.00,0.1308
3460.00,0.1313
3459.00,0.1316
3458.00,0.1320
3457.00,0.1324
3456.00,0.1329
3455.00,0.1333
3454.00,0.1337
3453.00,0.1341
3452.00,0.1344
3451.00,0.1348
3450.00,0.1351
3449.00,0.1354
3448.00,0.1358
3447.00,0.1362
3446.00,0.1366
3445.00,0.1370
3444.00,0.1374
3443.00,0.1377
3442.00,0.1380
3441.00,0.1384
3440.00,0.1388
3439.00,0.1392
3438.00,0.1396
3437.00,0.1400
3436.00,0.1403
3435.00,0.1406
3434.00,0.1409
3433.00,0.1412
3432.00,0.1415
3431.00,0.1418
3430.00,0.1421
3429.00,0.1424
3428.00,0.1427
3427.00,0.1429
3426.00,0.1431
3425.00,0.1433
3424.00,0.1435
3423.00,0.1437
3422.00,0.1439
3421.00,0.1442
3420.00,0.1444
3419.00,0.1446
3418.00,0.1448
3417.00,0.1450
3416.00,0.1452
3415.00,0.1454
3414.00,0.1456
3413.00,0.1458
3412.00,0.1460
3411.00,0.1462
3410.00,0.1463
3409.00,0.1465
3408.00,0.1466
3407.00,0.1467
3406.00,0.1469
3405.00,0.1470
3404.00,0.1472
3403.00,0.1474
3402.00,0.1475
3401.00,0.1476
3400.00,0.1476
3399.00,0.1476
3398.00,0.1477
3397.00,0.1478
3396.00,0.1478
3395.00,0.1478
3394.00,0.1478
3393.00,0.1479
3392.00,0.1479
3391.00,0.1478
3390.00,0.1477
3389.00,0.1476
3388.00,0.1475
3387.00,0.1474
3386.00,0.1474
3385.00,0.1474
3384.00,0.1474
3383.00,0.1473
3382.00,0.1473
3381.00,0.1472
3380.00,0.1471
3379.00,0.1469
3378.00,0.1468
3377.00,0.1468
3376.00,0.1466
3375.00,0.1465
3374.00,0.1463
3373.00,0.1462
3372.00,0.1461
3371.00,0.1460
3370.00,0.1458
3369.00,0.1456
3368.00,0.1454
3367.00,0.1451
3366.00,0.1449
3365.00,0.1447
3364.00,0.1445
3363.00,0.1442
3362.00,0.1440
3361.00,0.1437
3360.00,0.1435
3359.00,0.1432
3358.00,0.1430
3357.00,0.1428
3356.00,0.1425
3355.00,0.1422
3354.00,0.1419
3353.00,0.1416
3352.00,0.1414
3351.00,0.1411
3350.00,0.1408
3349.00,0.1405
3348.00,0.1402
3347.00,0.1399
3346.00,0.1395
3345.00,0.1392
3344.00,0.1388
3343.00,0.1385
3342.00,0.1381
3341.00,0.1378
3340.00,0.1375
3339.00,0.1372
3338.00,0.1369
3337.00,0.1365
3336.00,0.1362
3335.00,0.1358
3334.00,0.1354
3333.00,0.1350
3332.00,0.1346
3331.00,0.1342
3330.00,0.1339
3329.00,0.1336
3328.00,0.1333
3327.00,0.1329
3326.00,0.1326
3325.00,0.1322
3324.00,0.1319
3323.00,0.1315
3322.00,0.1311
3321.00,0.1308
3320.00,0.1304
3319.00,0.1301
3318.00,0.1297
3317.00,0.1294
3316.00,0.1290
3315.00,0.1287
3314.00,0.1283
3313.00,0.1280
3312.00,0.1276
3311.00,0.1272
3310.00,0.1269
3309.00,0.1266
3308.00,0.1263
3307.00,0.1259
3306.00,0.1256
3305.00,0.1252
3304.00,0.1249
3303.00,0.1246
3302.00,0.1242
3301.00,0.1239
3300.00,0.1236
3299.00,0.1233
3298.00,0.1230
3297.00,0.1226
3296.00,0.1223
3295.00,0.1220
3294.00,0.1217
3293.00,0.1215
3292.00,0.1211
3291.00,0.1208
3290.00,0.1205
3289.00,0.1202
3288.00,0.1199
3287.00,0.1196
3286.00,0.1193
3285.00,0.1189
3284.00,0.1186
3283.00,0.1183
3282.00,0.1180
3281.00,0.1177
3280.00,0.1174
3279.00,0.1171
3278.00,0.1168
3277.00,0.1165
3276.00,0.1162
3275.00,0.1159
3274.00,0.1157
3273.00,0.1154
3272.00,0.1151
3271.00,0.1148
3270.00,0.1145
3269.00,0.1141
3268.00,0.1138
3267.00,0.1135
3266.00,0.1132
3265.00,0.1128
3264.00,0.1125
3263.00,0.1122
3262.00,0.1119
3261.00,0.1116
3260.00,0.1113
3259.00,0.1109
3258.00,0.1106
3257.00,0.1103
3256.00,0.1099
3255.00,0.1096
3254.00,0.1092
3253.00,0.1088
3252.00,0.1085
3251.00,0.1082
3250.00,0.1079
3249.00,0.1076
3248.00,0.1073
3247.00,0.1069
3246.00,0.1065
3245.00,0.1061
3244.00,0.1058
3243.00,0.1054
3242.00,0.1050
3241.00,0.1046
3240.00,0.1042
3239.00,0.1038
3238.00,0.1034
3237.00,0.1029
3236.00,0.1025
3235.00,0.1021
3234.00,0.1017
3233.00,0.1012
3232.00,0.1008
3231.00,0.1004
3230.00,0.0999
3229.00,0.0995
3228.00,0.0990
3227.00,0.0986
3226.00,0.0982
3225.00,0.0978
3224.00,0.0973
3223.00,0.0968
3222.00,0.0963
3221.00,0.0959
3220.00,0.0954
3219.00,0.0949
3218.00,0.0944
3217.00,0.0939
3216.00,0.0934
3215.00,0.0930
3214.00,0.0925
3213.00,0.0920
3212.00,0.0916
3211.00,0.0911
3210.00,0.0906
3209.00,0.0901
3208.00,0.0896
3207.00,0.0891
3206.00,0.0885
3205.00,0.0880
3204.00,0.0875
3203.00,0.0870
3202.00,0.0866
3201.00,0.0861
3200.00,0.0856
3199.00,0.0852
3198.00,0.0847
3197.00,0.0842
3196.00,0.0837
3195.00,0.0832
3194.00,0.0826
3193.00,0.0821
3192.00,0.0816
3191.00,0.0810
3190.00,0.0805
3189.00,0.0800
3188.00,0.0795
3187.00,0.0790
3186.00,0.0785
3185.00,0.0780
3184.00,0.0774
3183.00,0.0769
3182.00,0.0764
3181.00,0.0759
3180.00,0.0754
3179.00,0.0749
3178.00,0.0745
3177.00,0.0740
3176.00,0.0736
3175.00,0.0731
3174.00,0.0726
3173.00,0.0722
3172.00,0.0717
3171.00,0.0712
3170.00,0.0707
3169.00,0.0702
3168.00,0.0698
3167.00,0.0693
3166.00,0.0688
3165.00,0.0684
3164.00,0.0679
3163.00,0.0675
3162.00,0.0670
3161.00,0.0666
3160.00,0.0661
3159.00,0.0657
3158.00,0.0652
3157.00,0.0648
3156.00,0.0643
3155.00,0.0639
3154.00,0.0635
3153.00,0.0631
3152.00,0.0627
3151.00,0.0623
3150.00,0.0618
3149.00,0.0614
3148.00,0.0609
3147.00,0.0606
3146.00,0.0602
3145.00,0.0598
3144.00,0.0594
3143.00,0.0590
3142.00,0.0585
3141.00,0.0582
3140.00,0.0578
3139.00,0.0574
3138.00,0.0570
3137.00,0.0566
3136.00,0.0562
3135.00,0.0558
3134.00,0.0555
3133.00,0.0551
3132.00,0.0547
3131.00,0.0544
3130.00,0.0540
3129.00,0.0537
3128.00,0.0534
3127.00,0.0530
3126.00,0.0526
3125.00,0.0522
3124.00,0.0519
3123.00,0.0516
3122.00,0.0513
3121.00,0.0510
3120.00,0.0506
3119.00,0.0503
3118.00,0.0500
3117.00,0.0497
3116.00,0.0493
3115.00,0.0490
3114.00,0.0486
3113.00,0.0483
3112.00,0.0479
3111.00,0.0476
3110.00,0.0473
3109.00,0.0471
3108.00,0.0468
3107.00,0.0465
3106.00,0.0463
3105.00,0.0460
3104.00,0.0457
3103.00,0.0454
3102.00,0.0451
3101.00,0.0448
3100.00,0.0445
3099.00,0.0443
3098.00,0.0440
3097.00,0.0437
3096.00,0.0435
3095.00,0.0432
3094.00,0.0429
3093.00,0.0426
3092.00,0.0424
3091.00,0.0421
3090.00,0.0419
3089.00,0.0416
3088.00,0.0413
3087.00,0.0410
3086.00,0.0408
3085.00,0.0405
3084.00,0.0403
3083.00,0.0400
3082.00,0.0398
3081.00,0.0396
3080.00,0.0394
3079.00,0.0393
3078.00,0.0391
3077.00,0.0389
3076.00,0.0386
3075.00,0.0384
3074.00,0.0381
3073.00,0.0379
3072.00,0.0377
3071.00,0.0375
3070.00,0.0372
3069.00,0.0370
3068.00,0.0368
3067.00,0.0365
3066.00,0.0363
3065.00,0.0362
3064.00,0.0360
3063.00,0.0358
3062.00,0.0356
3061.00,0.0354
3060.00,0.0352
3059.00,0.0350
3058.00,0.0347
3057.00,0.0345
3056.00,0.0343
3055.00,0.0342
3054.00,0.0340
3053.00,0.0339
3052.00,0.0337
3051.00,0.0335
3050.00,0.0333
3049.00,0.0331
3048.00,0.0329
3047.00,0.0327
3046.00,0.0325
3045.00,0.0323
3044.00,0.0322
3043.00,0.0320
3042.00,0.0319
3041.00,0.0318
3040.00,0.0316
3039.00,0.0315
3038.00,0.0313
3037.00,0.0311
3036.00,0.0310
3035.00,0.0308
3034.00,0.0307
3033.00,0.0305
3032.00,0.0304
3031.00,0.0303
3030.00,0.0302
3029.00,0.0301
3028.00,0.0300
3027.00,0.0299
3026.00,0.0297
3025.00,0.0296
3024.00,0.0294
3023.00,0.0293
3022.00,0.0291
3021.00,0.0290
3020.00,0.0289
3019.00,0.0288
3018.00,0.0287
3017.00,0.0286
3016.00,0.0285
3015.00,0.0284
3014.00,0.0284
3013.00,0.0283
3012.00,0.0282
3011.00,0.0282
3010.00,0.0281
3009.00,0.0280
3008.00,0.0279
3007.00,0.0278
3006.00,0.0277
3005.00,0.0277
3004.00,0.0276
3003.00,0.0275
3002.00,0.0274
3001.00,0.0274
3000.00,0.0273
2999.00,0.0272
2998.00,0.0271
2997.00,0.0271
2996.00,0.0270
2995.00,0.0269
2994.00,0.0268
2993.00,0.0268
2992.00,0.0268
2991.00,0.0268
2990.00,0.0267
2989.00,0.0267
2988.00,0.0267
2987.00,0.0267
2986.00,0.0267
2985.00,0.0267
2984.00,0.0267
2983.00,0.0267
2982.00,0.0267
2981.00,0.0267
2980.00,0.0267
2979.00,0.0267
2978.00,0.0267
2977.00,0.0267
2976.00,0.0268
2975.00,0.0268
2974.00,0.0268
2973.00,0.0268
2972.00,0.0268
2971.00,0.0268
2970.00,0.0268
2969.00,0.0269
2968.00,0.0269
2967.00,0.0270
2966.00,0.0269
2965.00,0.0269
2964.00,0.0269
2963.00,0.0269
2962.00,0.0269
2961.00,0.0270
2960.00,0.0270
2959.00,0.0270
2958.00,0.0270
2957.00,0.0270
2956.00,0.0270
2955.00,0.0270
2954.00,0.0270
2953.00,0.0269
2952.00,0.0269
2951.00,0.0268
2950.00,0.0268
2949.00,0.0268
2948.00,0.0267
2947.00,0.0267
2946.00,0.0267
2945.00,0.0266
2944.00,0.0267
2943.00,0.0267
2942.00,0.0268
2941.00,0.0269
2940.00,0.0269
2939.00,0.0270
2938.00,0.0271
2937.00,0.0271
2936.00,0.0273
2935.00,0.0274
2934.00,0.0275
2933.00,0.0277
2932.00,0.0278
2931.00,0.0279
2930.00,0.0280
2929.00,0.0281
2928.00,0.0283
2927.00,0.0284
2926.00,0.0286
2925.00,0.0287
2924.00,0.0288
2923.00,0.0289
2922.00,0.0290
2921.00,0.0290
2920.00,0.0290
2919.00,0.0289
2918.00,0.0288
2917.00,0.0285
2916.00,0.0282
2915.00,0.0279
2914.00,0.0276
2913.00,0.0273
2912.00,0.0270
2911.00,0.0267
2910.00,0.0265
2909.00,0.0263
2908.00,0.0261
2907.00,0.0259
2906.00,0.0257
2905.00,0.0256
2904.00,0.0254
2903.00,0.0252
2902.00,0.0250
2901.00,0.0248
2900.00,0.0247
2899.00,0.0245
2898.00,0.0244
2897.00,0.0242
2896.00,0.0240
2895.00,0.0239
2894.00,0.0237
2893.00,0.0236
2892.00,0.0235
2891.00,0.0234
2890.00,0.0232
2889.00,0.0231
2888.00,0.0229
2887.00,0.0228
2886.00,0.0227
2885.00,0.0226
2884.00,0.0225
2883.00,0.0224
2882.00,0.0223
2881.00,0.0222
2880.00,0.0221
2879.00,0.0220
2878.00,0.0219
2877.00,0.0219
2876.00,0.0218
2875.00,0.0217
2874.00,0.0216
2873.00,0.0215
2872.00,0.0214
2871.00,0.0214
2870.00,0.0213
2869.00,0.0212
2868.00,0.0211
2867.00,0.0211
2866.00,0.0210
2865.00,0.0209
2864.00,0.0209
2863.00,0.0208
2862.00,0.0209
2861.00,0.0209
2860.00,0.0210
2859.00,0.0211
2858.00,0.0212
2857.00,0.0213
2856.00,0.0214
2855.00,0.0215
2854.00,0.0215
2853.00,0.0216
2852.00,0.0215
2851.00,0.0214
2850.00,0.0213
2849.00,0.0210
2848.00,0.0207
2847.00,0.0204
2846.00,0.0201
2845.00,0.0197
2844.00,0.0194
2843.00,0.0191
2842.00,0.0188
2841.00,0.0186
2840.00,0.0184
2839.00,0.0183
2838.00,0.0181
2837.00,0.0180
2836.00,0.0179
2835.00,0.0178
2834.00,0.0177
2833.00,0.0177
2832.00,0.0176
2831.00,0.0175
2830.00,0.0175
2829.00,0.0174
2828.00,0.0173
2827.00,0.0172
2826.00,0.0172
2825.00,0.0171
2824.00,0.0171
2823.00,0.0170
2822.00,0.0170
2821.00,0.0169
2820.00,0.0169
2819.00,0.0168
2818.00,0.0167
2817.00,0.0167
2816.00,0.0167
2815.00,0.0166
2814.00,0.0166
2813.00,0.0165
2812.00,0.0164
2811.00,0.0164
2810.00,0.0163
2809.00,0.0163
2808.00,0.0162
2807.00,0.0161
2806.00,0.0161
2805.00,0.0160
2804.00,0.0160
2803.00,0.0160
2802.00,0.0160
2801.00,0.0160
2800.00,0.0159
2799.00,0.0159
2798.00,0.0159
2797.00,0.0158
2796.00,0.0158
2795.00,0.0158
2794.00,0.0158
2793.00,0.0157
2792.00,0.0157
2791.00,0.0156
2790.00,0.0156
2789.00,0.0156
2788.00,0.0155
2787.00,0.0155
2786.00,0.0155
2785.00,0.0154
2784.00,0.0154
2783.00,0.0154
2782.00,0.0154
2781.00,0.0153
2780.00,0.0153
2779.00,0.0152
2778.00,0.0152
2777.00,0.0152
2776.00,0.0152
2775.00,0.0151
2774.00,0.0151
2773.00,0.0151
2772.00,0.0150
2771.00,0.0150
2770.00,0.0150
2769.00,0.0149
2768.00,0.0149
2767.00,0.0150
2766.00,0.0149
2765.00,0.0149
2764.00,0.0148
2763.00,0.0148
2762.00,0.0147
2761.00,0.0147
2760.00,0.0147
2759.00,0.0147
2758.00,0.0146
2757.00,0.0146
2756.00,0.0146
2755.00,0.0146
2754.00,0.0146
2753.00,0.0146
2752.00,0.0146
2751.00,0.0146
2750.00,0.0145
2749.00,0.0144
2748.00,0.0144
2747.00,0.0144
2746.00,0.0144
2745.00,0.0144
2744.00,0.0145
2743.00,0.0144
2742.00,0.0144
2741.00,0.0143
2740.00,0.0143
2739.00,0.0143
2738.00,0.0143
2737.00,0.0143
2736.00,0.0143
2735.00,0.0143
2734.00,0.0143
2733.00,0.0143
2732.00,0.0143
2731.00,0.0143
2730.00,0.0142
2729.00,0.0142
2728.00,0.0141
2727.00,0.0141
2726.00,0.0141
2725.00,0.0140
2724.00,0.0140
2723.00,0.0140
2722.00,0.0140
2721.00,0.0140
2720.00,0.0140
2719.00,0.0139
2718.00,0.0139
2717.00,0.0139
2716.00,0.0139
2715.00,0.0138
2714.00,0.0138
2713.00,0.0138
2712.00,0.0139
2711.00,0.0138
2710.00,0.0138
2709.00,0.0138
2708.00,0.0138
2707.00,0.0138
2706.00,0.0138
2705.00,0.0137
2704.00,0.0137
2703.00,0.0137
2702.00,0.0137
2701.00,0.0137
2700.00,0.0137
2699.00,0.0137
2698.00,0.0136
2697.00,0.0136
2696.00,0.0136
2695.00,0.0136
2694.00,0.0136
2693.00,0.0136
2692.00,0.0135
2691.00,0.0135
2690.00,0.0135
2689.00,0.0135
2688.00,0.0135
2687.00,0.0135
2686.00,0.0135
2685.00,0.0135
2684.00,0.0135
2683.00,0.0135
2682.00,0.0135
2681.00,0.0135
2680.00,0.0135
2679.00,0.0135
2678.00,0.0135
2677.00,0.0135
2676.00,0.0134
2675.00,0.0134
2674.00,0.0133
2673.00,0.0133
2672.00,0.0133
2671.00,0.0133
2670.00,0.0133
2669.00,0.0133
2668.00,0.0133
2667.00,0.0133
2666.00,0.0133
2665.00,0.0134
2664.00,0.0134
2663.00,0.0135
2662.00,0.0135
2661.00,0.0136
2660.00,0.0136
2659.00,0.0136
2658.00,0.0136
2657.00,0.0136
2656.00,0.0136
2655.00,0.0137
2654.00,0.0137
2653.00,0.0137
2652.00,0.0136
2651.00,0.0136
2650.00,0.0135
2649.00,0.0135
2648.00,0.0135
2647.00,0.0135
2646.00,0.0135
2645.00,0.0134
2644.00,0.0134
2643.00,0.0134
2642.00,0.0133
2641.00,0.0133
2640.00,0.0133
2639.00,0.0133
2638.00,0.0133
2637.00,0.0132
2636.00,0.0132
2635.00,0.0131
2634.00,0.0131
2633.00,0.0131
2632.00,0.0131
2631.00,0.0131
2630.00,0.0131
2629.00,0.0131
2628.00,0.0130
2627.00,0.0130
2626.00,0.0130
2625.00,0.0129
2624.00,0.0129
2623.00,0.0129
2622.00,0.0129
2621.00,0.0128
2620.00,0.0128
2619.00,0.0128
2618.00,0.0128
2617.00,0.0127
2616.00,0.0127
2615.00,0.0126
2614.00,0.0126
2613.00,0.0125
2612.00,0.0125
2611.00,0.0125
2610.00,0.0125
2609.00,0.0124
2608.00,0.0124
2607.00,0.0124
2606.00,0.0124
2605.00,0.0124
2604.00,0.0123
2603.00,0.0123
2602.00,0.0123
2601.00,0.0123
2600.00,0.0123
2599.00,0.0123
2598.00,0.0123
2597.00,0.0123
2596.00,0.0123
2595.00,0.0123
2594.00,0.0122
2593.00,0.0121
2592.00,0.0121
2591.00,0.0120
2590.00,0.0120
2589.00,0.0120
2588.00,0.0121
2587.00,0.0121
2586.00,0.0121
2585.00,0.0121
2584.00,0.0121
2583.00,0.0121
2582.00,0.0120
2581.00,0.0120
2580.00,0.0120
2579.00,0.0119
2578.00,0.0119
2577.00,0.0119
2576.00,0.0119
2575.00,0.0119
2574.00,0.0119
2573.00,0.0119
2572.00,0.0118
2571.00,0.0118
2570.00,0.0118
2569.00,0.0118
2568.00,0.0118
2567.00,0.0118
2566.00,0.0118
2565.00,0.0118
2564.00,0.0118
2563.00,0.0118
2562.00,0.0117
2561.00,0.0116
2560.00,0.0115
2559.00,0.0115
2558.00,0.0115
2557.00,0.0116
2556.00,0.0117
2555.00,0.0117
2554.00,0.0118
2553.00,0.0118
2552.00,0.0117
2551.00,0.0117
2550.00,0.0116
2549.00,0.0116
2548.00,0.0115
2547.00,0.0115
2546.00,0.0115
2545.00,0.0115
2544.00,0.0116
2543.00,0.0116
2542.00,0.0115
2541.00,0.0115
2540.00,0.0115
2539.00,0.0116
2538.00,0.0116
2537.00,0.0116
2536.00,0.0115
2535.00,0.0115
2534.00,0.0115
2533.00,0.0116
2532.00,0.0116
2531.00,0.0116
2530.00,0.0116
2529.00,0.0116
2528.00,0.0115
2527.00,0.0115
2526.00,0.0114
2525.00,0.0114
2524.00,0.0114
2523.00,0.0114
2522.00,0.0114
2521.00,0.0114
2520.00,0.0114
2519.00,0.0114
2518.00,0.0114
2517.00,0.0114
2516.00,0.0115
2515.00,0.0114
2514.00,0.0114
2513.00,0.0114
2512.00,0.0114
2511.00,0.0114
2510.00,0.0114
2509.00,0.0113
2508.00,0.0114
2507.00,0.0114
2506.00,0.0115
2505.00,0.0115
2504.00,0.0115
2503.00,0.0114
2502.00,0.0114
2501.00,0.0114
2500.00,0.0114
2499.00,0.0115
2498.00,0.0115
2497.00,0.0115
2496.00,0.0115
2495.00,0.0114
2494.00,0.0114
2493.00,0.0115
2492.00,0.0115
2491.00,0.0115
2490.00,0.0115
2489.00,0.0114
2488.00,0.0114
2487.00,0.0113
2486.00,0.0113
2485.00,0.0113
2484.00,0.0114
2483.00,0.0114
2482.00,0.0114
2481.00,0.0114
2480.00,0.0113
2479.00,0.0113
2478.00,0.0113
2477.00,0.0113
2476.00,0.0113
2475.00,0.0113
2474.00,0.0113
2473.00,0.0113
2472.00,0.0113
2471.00,0.0113
2470.00,0.0113
2469.00,0.0113
2468.00,0.0113
2467.00,0.0113
2466.00,0.0113
2465.00,0.0114
2464.00,0.0114
2463.00,0.0115
2462.00,0.0115
2461.00,0.0115
2460.00,0.0115
2459.00,0.0115
2458.00,0.0115
2457.00,0.0114
2456.00,0.0114
2455.00,0.0115
2454.00,0.0115
2453.00,0.0116
2452.00,0.0117
2451.00,0.0117
2450.00,0.0116
2449.00,0.0115
2448.00,0.0115
2447.00,0.0114
2446.00,0.0113
2445.00,0.0113
2444.00,0.0113
2443.00,0.0113
2442.00,0.0113
2441.00,0.0113
2440.00,0.0113
2439.00,0.0114
2438.00,0.0113
2437.00,0.0113
2436.00,0.0113
2435.00,0.0114
2434.00,0.0114
2433.00,0.0113
2432.00,0.0113
2431.00,0.0113
2430.00,0.0113
2429.00,0.0113
2428.00,0.0113
2427.00,0.0113
2426.00,0.0113
2425.00,0.0113
2424.00,0.0113
2423.00,0.0113
2422.00,0.0113
2421.00,0.0112
2420.00,0.0112
2419.00,0.0112
2418.00,0.0112
2417.00,0.0112
2416.00,0.0112
2415.00,0.0112
2414.00,0.0113
2413.00,0.0113
2412.00,0.0114
2411.00,0.0114
2410.00,0.0114
2409.00,0.0114
2408.00,0.0114
2407.00,0.0113
2406.00,0.0113
2405.00,0.0113
2404.00,0.0113
2403.00,0.0113
2402.00,0.0114
2401.00,0.0114
2400.00,0.0114
2399.00,0.0113
2398.00,0.0113
2397.00,0.0112
2396.00,0.0113
2395.00,0.0113
2394.00,0.0113
2393.00,0.0113
2392.00,0.0113
2391.00,0.0113
2390.00,0.0112
2389.00,0.0112
2388.00,0.0112
2387.00,0.0112
2386.00,0.0112
2385.00,0.0111
2384.00,0.0111
2383.00,0.0110
2382.00,0.0110
2381.00,0.0110
2380.00,0.0110
2379.00,0.0110
2378.00,0.0110
2377.00,0.0110
2376.00,0.0110
2375.00,0.0111
2374.00,0.0111
2373.00,0.0111
2372.00,0.0110
2371.00,0.0109
2370.00,0.0108
2369.00,0.0108
2368.00,0.0108
2367.00,0.0108
2366.00,0.0109
2365.00,0.0110
2364.00,0.0110
2363.00,0.0111
2362.00,0.0112
2361.00,0.0112
2360.00,0.0113
2359.00,0.0113
2358.00,0.0113
2357.00,0.0114
2356.00,0.0114
2355.00,0.0114
2354.00,0.0114
2353.00,0.0114
2352.00,0.0114
2351.00,0.0115
2350.00,0.0115
2349.00,0.0116
2348.00,0.0117
2347.00,0.0119
2346.00,0.0120
2345.00,0.0121
2344.00,0.0121
2343.00,0.0120
2342.00,0.0121
2341.00,0.0121
2340.00,0.0122
2339.00,0.0123
2338.00,0.0124
2337.00,0.0124
2336.00,0.0124
2335.00,0.0124
2334.00,0.0124
2333.00,0.0124
2332.00,0.0124
2331.00,0.0124
2330.00,0.0124
2329.00,0.0125
2328.00,0.0127
2327.00,0.0131
2326.00,0.0137
2325.00,0.0142
2324.00,0.0146
2323.00,0.0146
2322.00,0.0144
2321.00,0.0140
2320.00,0.0137
2319.00,0.0136
2318.00,0.0135
2317.00,0.0134
2316.00,0.0135
2315.00,0.0135
2314.00,0.0134
2313.00,0.0134
2312.00,0.0133
2311.00,0.0132
2310.00,0.0132
2309.00,0.0132
2308.00,0.0132
2307.00,0.0132
2306.00,0.0132
2305.00,0.0133
2304.00,0.0134
2303.00,0.0135
2302.00,0.0136
2301.00,0.0136
2300.00,0.0137
2299.00,0.0138
2298.00,0.0139
2297.00,0.0140
2296.00,0.0140
2295.00,0.0141
2294.00,0.0141
2293.00,0.0141
2292.00,0.0142
2291.00,0.0144
2290.00,0.0145
2289.00,0.0147
2288.00,0.0148
2287.00,0.0149
2286.00,0.0149
2285.00,0.0150
2284.00,0.0149
2283.00,0.0149
2282.00,0.0148
2281.00,0.0146
2280.00,0.0145
2279.00,0.0145
2278.00,0.0144
2277.00,0.0143
2276.00,0.0143
2275.00,0.0142
2274.00,0.0141
2273.00,0.0141
2272.00,0.0141
2271.00,0.0141
2270.00,0.0141
2269.00,0.0141
2268.00,0.0140
2267.00,0.0140
2266.00,0.0139
2265.00,0.0139
2264.00,0.0139
2263.00,0.0139
2262.00,0.0138
2261.00,0.0138
2260.00,0.0138
2259.00,0.0138
2258.00,0.0139
2257.00,0.0138
2256.00,0.0136
2255.00,0.0134
2254.00,0.0132
2253.00,0.0131
2252.00,0.0132
2251.00,0.0133
2250.00,0.0135
2249.00,0.0137
2248.00,0.0137
2247.00,0.0136
2246.00,0.0135
2245.00,0.0135
2244.00,0.0136
2243.00,0.0138
2242.00,0.0139
2241.00,0.0140
2240.00,0.0141
2239.00,0.0142
2238.00,0.0142
2237.00,0.0142
2236.00,0.0141
2235.00,0.0139
2234.00,0.0138
2233.00,0.0137
2232.00,0.0136
2231.00,0.0137
2230.00,0.0137
2229.00,0.0137
2228.00,0.0137
2227.00,0.0138
2226.00,0.0139
2225.00,0.0140
2224.00,0.0140
2223.00,0.0140
2222.00,0.0139
2221.00,0.0139
2220.00,0.0139
2219.00,0.0139
2218.00,0.0140
2217.00,0.0141
2216.00,0.0142
2215.00,0.0141
2214.00,0.0141
2213.00,0.0140
2212.00,0.0140
2211.00,0.0140
2210.00,0.0139
2209.00,0.0139
2208.00,0.0139
2207.00,0.0138
2206.00,0.0137
2205.00,0.0138
2204.00,0.0139
2203.00,0.0140
2202.00,0.0141
2201.00,0.0141
2200.00,0.0140
2199.00,0.0139
2198.00,0.0139
2197.00,0.0140
2196.00,0.0141
2195.00,0.0140
2194.00,0.0139
2193.00,0.0138
2192.00,0.0138
2191.00,0.0137
2190.00,0.0138
2189.00,0.0141
2188.00,0.0145
2187.00,0.0148
2186.00,0.0150
2185.00,0.0150
2184.00,0.0149
2183.00,0.0147
2182.00,0.0144
2181.00,0.0140
2180.00,0.0137
2179.00,0.0137
2178.00,0.0137
2177.00,0.0136
2176.00,0.0135
2175.00,0.0134
2174.00,0.0135
2173.00,0.0137
2172.00,0.0141
2171.00,0.0145
2170.00,0.0146
2169.00,0.0147
2168.00,0.0148
2167.00,0.0148
2166.00,0.0149
2165.00,0.0150
2164.00,0.0152
2163.00,0.0152
2162.00,0.0150
2161.00,0.0142
2160.00,0.0129
2159.00,0.0114
2158.00,0.0101
2157.00,0.0096
2156.00,0.0096
2155.00,0.0099
2154.00,0.0103
2153.00,0.0106
2152.00,0.0109
2151.00,0.0111
2150.00,0.0112
2149.00,0.0112
2148.00,0.0112
2147.00,0.0111
2146.00,0.0110
2145.00,0.0110
2144.00,0.0112
2143.00,0.0113
2142.00,0.0114
2141.00,0.0115
2140.00,0.0116
2139.00,0.0118
2138.00,0.0119
2137.00,0.0121
2136.00,0.0120
2135.00,0.0118
2134.00,0.0117
2133.00,0.0117
2132.00,0.0121
2131.00,0.0125
2130.00,0.0128
2129.00,0.0131
2128.00,0.0133
2127.00,0.0135
2126.00,0.0137
2125.00,0.0139
2124.00,0.0140
2123.00,0.0142
2122.00,0.0143
2121.00,0.0144
2120.00,0.0146
2119.00,0.0147
2118.00,0.0148
2117.00,0.0150
2116.00,0.0152
2115.00,0.0154
2114.00,0.0156
2113.00,0.0158
2112.00,0.0158
2111.00,0.0157
2110.00,0.0156
2109.00,0.0156
2108.00,0.0157
2107.00,0.0158
2106.00,0.0158
2105.00,0.0158
2104.00,0.0157
2103.00,0.0157
2102.00,0.0157
2101.00,0.0157
2100.00,0.0157
2099.00,0.0156
2098.00,0.0155
2097.00,0.0154
2096.00,0.0153
2095.00,0.0151
2094.00,0.0148
2093.00,0.0147
2092.00,0.0147
2091.00,0.0149
2090.00,0.0151
2089.00,0.0153
2088.00,0.0154
2087.00,0.0155
2086.00,0.0155
2085.00,0.0155
2084.00,0.0156
2083.00,0.0156
2082.00,0.0155
2081.00,0.0155
2080.00,0.0155
2079.00,0.0156
2078.00,0.0157
2077.00,0.0156
2076.00,0.0155
2075.00,0.0154
2074.00,0.0154
2073.00,0.0154
2072.00,0.0155
2071.00,0.0156
2070.00,0.0155
2069.00,0.0152
2068.00,0.0150
2067.00,0.0148
2066.00,0.0147
2065.00,0.0147
2064.00,0.0147
2063.00,0.0147
2062.00,0.0146
2061.00,0.0146
2060.00,0.0146
2059.00,0.0146
2058.00,0.0146
2057.00,0.0147
2056.00,0.0147
2055.00,0.0148
2054.00,0.0149
2053.00,0.0153
2052.00,0.0157
2051.00,0.0159
2050.00,0.0158
2049.00,0.0154
2048.00,0.0149
2047.00,0.0145
2046.00,0.0142
2045.00,0.0139
2044.00,0.0138
2043.00,0.0138
2042.00,0.0138
2041.00,0.0138
2040.00,0.0138
2039.00,0.0137
2038.00,0.0135
2037.00,0.0134
2036.00,0.0133
2035.00,0.0132
2034.00,0.0130
2033.00,0.0127
2032.00,0.0123
2031.00,0.0120
2030.00,0.0118
2029.00,0.0118
2028.00,0.0120
2027.00,0.0123
2026.00,0.0125
2025.00,0.0127
2024.00,0.0128
2023.00,0.0127
2022.00,0.0126
2021.00,0.0126
2020.00,0.0127
2019.00,0.0128
2018.00,0.0128
2017.00,0.0128
2016.00,0.0129
2015.00,0.0131
2014.00,0.0133
2013.00,0.0133
2012.00,0.0130
2011.00,0.0126
2010.00,0.0122
2009.00,0.0118
2008.00,0.0116
2007.00,0.0113
2006.00,0.0112
2005.00,0.0112
2004.00,0.0114
2003.00,0.0117
2002.00,0.0121
2001.00,0.0125
2000.00,0.0127
1999.00,0.0129
1998.00,0.0129
1997.00,0.0129
1996.00,0.0130
1995.00,0.0131
1994.00,0.0133
1993.00,0.0134
1992.00,0.0135
1991.00,0.0134
1990.00,0.0134
1989.00,0.0134
1988.00,0.0135
1987.00,0.0136
1986.00,0.0136
1985.00,0.0136
1984.00,0.0138
1983.00,0.0139
1982.00,0.0142
1981.00,0.0144
1980.00,0.0145
1979.00,0.0141
1978.00,0.0133
1977.00,0.0125
1976.00,0.0118
1975.00,0.0114
1974.00,0.0112
1973.00,0.0111
1972.00,0.0111
1971.00,0.0112
1970.00,0.0114
1969.00,0.0116
1968.00,0.0118
1967.00,0.0118
1966.00,0.0115
1965.00,0.0112
1964.00,0.0112
1963.00,0.0112
1962.00,0.0113
1961.00,0.0113
1960.00,0.0113
1959.00,0.0111
1958.00,0.0110
1957.00,0.0110
1956.00,0.0109
1955.00,0.0109
1954.00,0.0108
1953.00,0.0109
1952.00,0.0111
1951.00,0.0112
1950.00,0.0113
1949.00,0.0113
1948.00,0.0115
1947.00,0.0116
1946.00,0.0117
1945.00,0.0117
1944.00,0.0118
1943.00,0.0117
1942.00,0.0116
1941.00,0.0115
1940.00,0.0115
1939.00,0.0115
1938.00,0.0115
1937.00,0.0116
1936.00,0.0118
1935.00,0.0118
1934.00,0.0118
1933.00,0.0118
1932.00,0.0118
1931.00,0.0119
1930.00,0.0118
1929.00,0.0118
1928.00,0.0117
1927.00,0.0117
1926.00,0.0117
1925.00,0.0118
1924.00,0.0119
1923.00,0.0120
1922.00,0.0121
1921.00,0.0122
1920.00,0.0124
1919.00,0.0125
1918.00,0.0125
1917.00,0.0125
1916.00,0.0124
1915.00,0.0125
1914.00,0.0124
1913.00,0.0123
1912.00,0.0122
1911.00,0.0120
1910.00,0.0120
1909.00,0.0121
1908.00,0.0123
1907.00,0.0123
1906.00,0.0123
1905.00,0.0123
1904.00,0.0122
1903.00,0.0122
1902.00,0.0122
1901.00,0.0122
1900.00,0.0122
1899.00,0.0122
1898.00,0.0122
1897.00,0.0123
1896.00,0.0124
1895.00,0.0124
1894.00,0.0124
1893.00,0.0123
1892.00,0.0124
1891.00,0.0124
1890.00,0.0125
1889.00,0.0125
1888.00,0.0125
1887.00,0.0124
1886.00,0.0124
1885.00,0.0123
1884.00,0.0123
1883.00,0.0123
1882.00,0.0123
1881.00,0.0123
1880.00,0.0123
1879.00,0.0123
1878.00,0.0122
1877.00,0.0122
1876.00,0.0121
1875.00,0.0121
1874.00,0.0122
1873.00,0.0123
1872.00,0.0124
1871.00,0.0124
1870.00,0.0124
1869.00,0.0123
1868.00,0.0122
1867.00,0.0122
1866.00,0.0122
1865.00,0.0123
1864.00,0.0124
1863.00,0.0124
1862.00,0.0125
1861.00,0.0125
1860.00,0.0125
1859.00,0.0125
1858.00,0.0125
1857.00,0.0125
1856.00,0.0125
1855.00,0.0125
1854.00,0.0124
1853.00,0.0124
1852.00,0.0124
1851.00,0.0124
1850.00,0.0125
1849.00,0.0126
1848.00,0.0126
1847.00,0.0127
1846.00,0.0127
1845.00,0.0127
1844.00,0.0127
1843.00,0.0127
1842.00,0.0126
1841.00,0.0126
1840.00,0.0126
1839.00,0.0126
1838.00,0.0125
1837.00,0.0126
1836.00,0.0126
1835.00,0.0127
1834.00,0.0128
1833.00,0.0129
1832.00,0.0129
1831.00,0.0129
1830.00,0.0129
1829.00,0.0128
1828.00,0.0129
1827.00,0.0130
1826.00,0.0132
1825.00,0.0133
1824.00,0.0133
1823.00,0.0133
1822.00,0.0132
1821.00,0.0132
1820.00,0.0132
1819.00,0.0131
1818.00,0.0130
1817.00,0.0129
1816.00,0.0129
1815.00,0.0129
1814.00,0.0131
1813.00,0.0132
1812.00,0.0134
1811.00,0.0135
1810.00,0.0135
1809.00,0.0135
1808.00,0.0136
1807.00,0.0136
1806.00,0.0137
1805.00,0.0138
1804.00,0.0140
1803.00,0.0141
1802.00,0.0142
1801.00,0.0142
1800.00,0.0142
1799.00,0.0142
1798.00,0.0142
1797.00,0.0143
1796.00,0.0144
1795.00,0.0145
1794.00,0.0146
1793.00,0.0147
1792.00,0.0146
1791.00,0.0146
1790.00,0.0145
1789.00,0.0146
1788.00,0.0146
1787.00,0.0147
1786.00,0.0148
1785.00,0.0149
1784.00,0.0149
1783.00,0.0149
1782.00,0.0149
1781.00,0.0150
1780.00,0.0151
1779.00,0.0151
1778.00,0.0152
1777.00,0.0152
1776.00,0.0153
1775.00,0.0154
1774.00,0.0155
1773.00,0.0156
1772.00,0.0156
1771.00,0.0156
1770.00,0.0156
1769.00,0.0157
1768.00,0.0159
1767.00,0.0160
1766.00,0.0160
1765.00,0.0161
1764.00,0.0162
1763.00,0.0163
1762.00,0.0163
1761.00,0.0164
1760.00,0.0164
1759.00,0.0165
1758.00,0.0167
1757.00,0.0169
1756.00,0.0171
1755.00,0.0173
1754.00,0.0174
1753.00,0.0177
1752.00,0.0179
1751.00,0.0182
1750.00,0.0183
1749.00,0.0184
1748.00,0.0185
1747.00,0.0186
1746.00,0.0187
1745.00,0.0188
1744.00,0.0190
1743.00,0.0191
1742.00,0.0192
1741.00,0.0193
1740.00,0.0194
1739.00,0.0196
1738.00,0.0196
1737.00,0.0198
1736.00,0.0200
1735.00,0.0202
1734.00,0.0204
1733.00,0.0206
1732.00,0.0207
1731.00,0.0208
1730.00,0.0210
1729.00,0.0211
1728.00,0.0212
1727.00,0.0214
1726.00,0.0216
1725.00,0.0218
1724.00,0.0221
1723.00,0.0223
1722.00,0.0225
1721.00,0.0227
1720.00,0.0229
1719.00,0.0233
1718.00,0.0238
1717.00,0.0242
1716.00,0.0246
1715.00,0.0248
1714.00,0.0250
1713.00,0.0252
1712.00,0.0255
1711.00,0.0259
1710.00,0.0262
1709.00,0.0266
1708.00,0.0270
1707.00,0.0274
1706.00,0.0279
1705.00,0.0284
1704.00,0.0288
1703.00,0.0292
1702.00,0.0295
1701.00,0.0300
1700.00,0.0308
1699.00,0.0315
1698.00,0.0321
1697.00,0.0328
1696.00,0.0337
1695.00,0.0346
1694.00,0.0352
1693.00,0.0358
1692.00,0.0364
1691.00,0.0371
1690.00,0.0380
1689.00,0.0388
1688.00,0.0395
1687.00,0.0402
1686.00,0.0409
1685.00,0.0420
1684.00,0.0434
1683.00,0.0447
1682.00,0.0457
1681.00,0.0466
1680.00,0.0475
1679.00,0.0484
1678.00,0.0491
1677.00,0.0499
1676.00,0.0511
1675.00,0.0524
1674.00,0.0537
1673.00,0.0547
1672.00,0.0557
1671.00,0.0568
1670.00,0.0581
1669.00,0.0596
1668.00,0.0610
1667.00,0.0621
1666.00,0.0629
1665.00,0.0638
1664.00,0.0649
1663.00,0.0662
1662.00,0.0677
1661.00,0.0690
1660.00,0.0701
1659.00,0.0711
1658.00,0.0720
1657.00,0.0726
1656.00,0.0731
1655.00,0.0736
1654.00,0.0749
1653.00,0.0772
1652.00,0.0793
1651.00,0.0802
1650.00,0.0804
1649.00,0.0805
1648.00,0.0810
1647.00,0.0822
1646.00,0.0834
1645.00,0.0843
1644.00,0.0848
1643.00,0.0851
1642.00,0.0853
1641.00,0.0854
1640.00,0.0856
1639.00,0.0856
1638.00,0.0854
1637.00,0.0853
1636.00,0.0856
1635.00,0.0859
1634.00,0.0860
1633.00,0.0858
1632.00,0.0854
1631.00,0.0848
1630.00,0.0841
1629.00,0.0834
1628.00,0.0826
1627.00,0.0818
1626.00,0.0810
1625.00,0.0801
1624.00,0.0791
1623.00,0.0780
1622.00,0.0770
1621.00,0.0758
1620.00,0.0747
1619.00,0.0734
1618.00,0.0722
1617.00,0.0708
1616.00,0.0694
1615.00,0.0681
1614.00,0.0669
1613.00,0.0656
1612.00,0.0643
1611.00,0.0630
1610.00,0.0617
1609.00,0.0605
1608.00,0.0594
1607.00,0.0582
1606.00,0.0571
1605.00,0.0559
1604.00,0.0548
1603.00,0.0538
1602.00,0.0528
1601.00,0.0517
1600.00,0.0508
1599.00,0.0498
1598.00,0.0490
1597.00,0.0482
1596.00,0.0474
1595.00,0.0467
1594.00,0.0460
1593.00,0.0453
1592.00,0.0446
1591.00,0.0439
1590.00,0.0433
1589.00,0.0427
1588.00,0.0422
1587.00,0.0416
1586.00,0.0411
1585.00,0.0407
1584.00,0.0403
1583.00,0.0399
1582.00,0.0396
1581.00,0.0392
1580.00,0.0389
1579.00,0.0387
1578.00,0.0384
1577.00,0.0382
1576.00,0.0378
1575.00,0.0374
1574.00,0.0370
1573.00,0.0367
1572.00,0.0363
1571.00,0.0360
1570.00,0.0357
1569.00,0.0354
1568.00,0.0351
1567.00,0.0349
1566.00,0.0347
1565.00,0.0345
1564.00,0.0342
1563.00,0.0340
1562.00,0.0338
1561.00,0.0336
1560.00,0.0333
1559.00,0.0329
1558.00,0.0327
1557.00,0.0327
1556.00,0.0328
1555.00,0.0328
1554.00,0.0327
1553.00,0.0326
1552.00,0.0325
1551.00,0.0324
1550.00,0.0324
1549.00,0.0323
1548.00,0.0321
1547.00,0.0320
1546.00,0.0320
1545.00,0.0320
1544.00,0.0319
1543.00,0.0319
1542.00,0.0317
1541.00,0.0315
1540.00,0.0311
1539.00,0.0307
1538.00,0.0304
1537.00,0.0303
1536.00,0.0302
1535.00,0.0300
1534.00,0.0298
1533.00,0.0296
1532.00,0.0294
1531.00,0.0293
1530.00,0.0292
1529.00,0.0292
1528.00,0.0291
1527.00,0.0290
1526.00,0.0289
1525.00,0.0287
1524.00,0.0286
1523.00,0.0284
1522.00,0.0284
1521.00,0.0283
1520.00,0.0283
1519.00,0.0282
1518.00,0.0282
1517.00,0.0282
1516.00,0.0281
1515.00,0.0280
1514.00,0.0280
1513.00,0.0280
1512.00,0.0280
1511.00,0.0280
1510.00,0.0280
1509.00,0.0280
1508.00,0.0280
1507.00,0.0279
1506.00,0.0276
1505.00,0.0273
1504.00,0.0273
1503.00,0.0274
1502.00,0.0274
1501.00,0.0274
1500.00,0.0273
1499.00,0.0272
1498.00,0.0272
1497.00,0.0273
1496.00,0.0273
1495.00,0.0274
1494.00,0.0274
1493.00,0.0276
1492.00,0.0277
1491.00,0.0280
1490.00,0.0282
1489.00,0.0284
1488.00,0.0284
1487.00,0.0285
1486.00,0.0286
1485.00,0.0288
1484.00,0.0290
1483.00,0.0292
1482.00,0.0295
1481.00,0.0297
1480.00,0.0300
1479.00,0.0302
1478.00,0.0305
1477.00,0.0307
1476.00,0.0309
1475.00,0.0311
1474.00,0.0314
1473.00,0.0316
1472.00,0.0318
1471.00,0.0318
1470.00,0.0319
1469.00,0.0320
1468.00,0.0321
1467.00,0.0322
1466.00,0.0322
1465.00,0.0323
1464.00,0.0323
1463.00,0.0323
1462.00,0.0323
1461.00,0.0324
1460.00,0.0324
1459.00,0.0325
1458.00,0.0327
1457.00,0.0330
1456.00,0.0331
1455.00,0.0332
1454.00,0.0332
1453.00,0.0332
1452.00,0.0332
1451.00,0.0332
1450.00,0.0332
1449.00,0.0332
1448.00,0.0333
1447.00,0.0333
1446.00,0.0334
1445.00,0.0335
1444.00,0.0336
1443.00,0.0337
1442.00,0.0338
1441.00,0.0339
1440.00,0.0340
1439.00,0.0341
1438.00,0.0342
1437.00,0.0344
1436.00,0.0346
1435.00,0.0347
1434.00,0.0348
1433.00,0.0349
1432.00,0.0350
1431.00,0.0351
1430.00,0.0351
1429.00,0.0352
1428.00,0.0352
1427.00,0.0353
1426.00,0.0353
1425.00,0.0354
1424.00,0.0355
1423.00,0.0355
1422.00,0.0355
1421.00,0.0355
1420.00,0.0355
1419.00,0.0356
1418.00,0.0356
1417.00,0.0356
1416.00,0.0356
1415.00,0.0355
1414.00,0.0355
1413.00,0.0355
1412.00,0.0356
1411.00,0.0356
1410.00,0.0356
1409.00,0.0355
1408.00,0.0355
1407.00,0.0356
1406.00,0.0356
1405.00,0.0356
1404.00,0.0356
1403.00,0.0355
1402.00,0.0354
1401.00,0.0353
1400.00,0.0353
1399.00,0.0353
1398.00,0.0353
1397.00,0.0353
1396.00,0.0352
1395.00,0.0352
1394.00,0.0352
1393.00,0.0353
1392.00,0.0353
1391.00,0.0355
1390.00,0.0357
1389.00,0.0361
1388.00,0.0366
1387.00,0.0372
1386.00,0.0378
1385.00,0.0384
1384.00,0.0389
1383.00,0.0395
1382.00,0.0401
1381.00,0.0406
1380.00,0.0411
1379.00,0.0414
1378.00,0.0417
1377.00,0.0419
1376.00,0.0420
1375.00,0.0421
1374.00,0.0422
1373.00,0.0422
1372.00,0.0420
1371.00,0.0418
1370.00,0.0416
1369.00,0.0414
1368.00,0.0412
1367.00,0.0409
1366.00,0.0407
1365.00,0.0406
1364.00,0.0405
1363.00,0.0405
1362.00,0.0405
1361.00,0.0404
1360.00,0.0403
1359.00,0.0402
1358.00,0.0402
1357.00,0.0402
1356.00,0.0402
1355.00,0.0402
1354.00,0.0401
1353.00,0.0399
1352.00,0.0397
1351.00,0.0395
1350.00,0.0392
1349.00,0.0390
1348.00,0.0386
1347.00,0.0383
1346.00,0.0379
1345.00,0.0376
1344.00,0.0374
1343.00,0.0372
1342.00,0.0371
1341.00,0.0370
1340.00,0.0370
1339.00,0.0370
1338.00,0.0370
1337.00,0.0369
1336.00,0.0368
1335.00,0.0367
1334.00,0.0366
1333.00,0.0366
1332.00,0.0365
1331.00,0.0365
1330.00,0.0365
1329.00,0.0366
1328.00,0.0366
1327.00,0.0367
1326.00,0.0368
1325.00,0.0369
1324.00,0.0370
1323.00,0.0370
1322.00,0.0371
1321.00,0.0372
1320.00,0.0373
1319.00,0.0374
1318.00,0.0376
1317.00,0.0377
1316.00,0.0379
1315.00,0.0380
1314.00,0.0381
1313.00,0.0382
1312.00,0.0383
1311.00,0.0384
1310.00,0.0384
1309.00,0.0386
1308.00,0.0387
1307.00,0.0389
1306.00,0.0391
1305.00,0.0393
1304.00,0.0395
1303.00,0.0398
1302.00,0.0401
1301.00,0.0405
1300.00,0.0409
1299.00,0.0414
1298.00,0.0419
1297.00,0.0425
1296.00,0.0433
1295.00,0.0440
1294.00,0.0448
1293.00,0.0457
1292.00,0.0466
1291.00,0.0475
1290.00,0.0485
1289.00,0.0495
1288.00,0.0505
1287.00,0.0516
1286.00,0.0527
1285.00,0.0539
1284.00,0.0551
1283.00,0.0564
1282.00,0.0578
1281.00,0.0592
1280.00,0.0607
1279.00,0.0622
1278.00,0.0638
1277.00,0.0654
1276.00,0.0670
1275.00,0.0687
1274.00,0.0704
1273.00,0.0722
1272.00,0.0739
1271.00,0.0757
1270.00,0.0774
1269.00,0.0790
1268.00,0.0805
1267.00,0.0819
1266.00,0.0832
1265.00,0.0845
1264.00,0.0857
1263.00,0.0868
1262.00,0.0878
1261.00,0.0887
1260.00,0.0896
1259.00,0.0905
1258.00,0.0912
1257.00,0.0918
1256.00,0.0924
1255.00,0.0929
1254.00,0.0934
1253.00,0.0938
1252.00,0.0941
1251.00,0.0944
1250.00,0.0946
1249.00,0.0948
1248.00,0.0950
1247.00,0.0952
1246.00,0.0955
1245.00,0.0957
1244.00,0.0960
1243.00,0.0963
1242.00,0.0967
1241.00,0.0972
1240.00,0.0977
1239.00,0.0981
1238.00,0.0986
1237.00,0.0991
1236.00,0.0996
1235.00,0.1001
1234.00,0.1005
1233.00,0.1008
1232.00,0.1011
1231.00,0.1013
1230.00,0.1014
1229.00,0.1015
1228.00,0.1016
1227.00,0.1015
1226.00,0.1014
1225.00,0.1012
1224.00,0.1010
1223.00,0.1007
1222.00,0.1003
1221.00,0.0998
1220.00,0.0993
1219.00,0.0986
1218.00,0.0979
1217.00,0.0971
1216.00,0.0962
1215.00,0.0952
1214.00,0.0942
1213.00,0.0931
1212.00,0.0919
1211.00,0.0907
1210.00,0.0895
1209.00,0.0882
1208.00,0.0869
1207.00,0.0857
1206.00,0.0845
1205.00,0.0834
1204.00,0.0823
1203.00,0.0814
1202.00,0.0805
1201.00,0.0799
1200.00,0.0794
1199.00,0.0790
1198.00,0.0789
1197.00,0.0791
1196.00,0.0793
1195.00,0.0798
1194.00,0.0802
1193.00,0.0806
1192.00,0.0809
1191.00,0.0811
1190.00,0.0810
1189.00,0.0808
1188.00,0.0804
1187.00,0.0800
1186.00,0.0796
1185.00,0.0793
1184.00,0.0791
1183.00,0.0789
1182.00,0.0790
1181.00,0.0793
1180.00,0.0797
1179.00,0.0802
1178.00,0.0809
1177.00,0.0818
1176.00,0.0826
1175.00,0.0836
1174.00,0.0846
1173.00,0.0858
1172.00,0.0872
1171.00,0.0887
1170.00,0.0904
1169.00,0.0922
1168.00,0.0942
1167.00,0.0961
1166.00,0.0981
1165.00,0.1001
1164.00,0.1019
1163.00,0.1037
1162.00,0.1052
1161.00,0.1066
1160.00,0.1077
1159.00,0.1086
1158.00,0.1093
1157.00,0.1098
1156.00,0.1099
1155.00,0.1099
1154.00,0.1097
1153.00,0.1094
1152.00,0.1089
1151.00,0.1082
1150.00,0.1075
1149.00,0.1067
1148.00,0.1058
1147.00,0.1049
1146.00,0.1040
1145.00,0.1031
1144.00,0.1023
1143.00,0.1016
1142.00,0.1011
1141.00,0.1008
1140.00,0.1008
1139.00,0.1010
1138.00,0.1015
1137.00,0.1024
1136.00,0.1037
1135.00,0.1053
1134.00,0.1072
1133.00,0.1094
1132.00,0.1116
1131.00,0.1139
1130.00,0.1160
1129.00,0.1179
1128.00,0.1194
1127.00,0.1204
1126.00,0.1210
1125.00,0.1212
1124.00,0.1211
1123.00,0.1207
1122.00,0.1202
1121.00,0.1196
1120.00,0.1189
1119.00,0.1183
1118.00,0.1179
1117.00,0.1175
1116.00,0.1172
1115.00,0.1168
1114.00,0.1164
1113.00,0.1159
1112.00,0.1154
1111.00,0.1149
1110.00,0.1145
1109.00,0.1142
1108.00,0.1139
1107.00,0.1137
1106.00,0.1137
1105.00,0.1139
1104.00,0.1143
1103.00,0.1151
1102.00,0.1161
1101.00,0.1174
1100.00,0.1188
1099.00,0.1203
1098.00,0.1218
1097.00,0.1233
1096.00,0.1245
1095.00,0.1255
1094.00,0.1263
1093.00,0.1268
1092.00,0.1272
1091.00,0.1277
1090.00,0.1283
1089.00,0.1290
1088.00,0.1299
1087.00,0.1309
1086.00,0.1321
1085.00,0.1335
1084.00,0.1350
1083.00,0.1367
1082.00,0.1387
1081.00,0.1409
1080.00,0.1433
1079.00,0.1459
1078.00,0.1487
1077.00,0.1516
1076.00,0.1546
1075.00,0.1574
1074.00,0.1603
1073.00,0.1631
1072.00,0.1658
1071.00,0.1683
1070.00,0.1706
1069.00,0.1726
1068.00,0.1740
1067.00,0.1746
1066.00,0.1744
1065.00,0.1732
1064.00,0.1711
1063.00,0.1684
1062.00,0.1653
1061.00,0.1623
1060.00,0.1594
1059.00,0.1569
1058.00,0.1550
1057.00,0.1537
1056.00,0.1529
1055.00,0.1526
1054.00,0.1526
1053.00,0.1528
1052.00,0.1533
1051.00,0.1540
1050.00,0.1547
1049.00,0.1557
1048.00,0.1569
1047.00,0.1585
1046.00,0.1605
1045.00,0.1627
1044.00,0.1650
1043.00,0.1669
1042.00,0.1682
1041.00,0.1690
1040.00,0.1691
1039.00,0.1687
1038.00,0.1680
1037.00,0.1670
1036.00,0.1660
1035.00,0.1650
1034.00,0.1642
1033.00,0.1638
1032.00,0.1635
1031.00,0.1634
1030.00,0.1632
1029.00,0.1627
1028.00,0.1618
1027.00,0.1601
1026.00,0.1576
1025.00,0.1545
1024.00,0.1507
1023.00,0.1465
1022.00,0.1421
1021.00,0.1375
1020.00,0.1330
1019.00,0.1286
1018.00,0.1243
1017.00,0.1203
1016.00,0.1168
1015.00,0.1138
1014.00,0.1113
1013.00,0.1095
1012.00,0.1082
1011.00,0.1074
1010.00,0.1072
1009.00,0.1074
1008.00,0.1081
1007.00,0.1089
1006.00,0.1097
1005.00,0.1103
1004.00,0.1103
1003.00,0.1097
1002.00,0.1083
1001.00,0.1061
1000.00,0.1033
999.00,0.1002
998.00,0.0972
997.00,0.0944
996.00,0.0921
995.00,0.0902
994.00,0.0887
993.00,0.0876
992.00,0.0869
991.00,0.0863
990.00,0.0858
989.00,0.0852
988.00,0.0843
987.00,0.0831
986.00,0.0818
985.00,0.0805
984.00,0.0792
983.00,0.0780
982.00,0.0770
981.00,0.0762
980.00,0.0757
979.00,0.0755
978.00,0.0755
977.00,0.0757
976.00,0.0762
975.00,0.0768
974.00,0.0776
973.00,0.0786
972.00,0.0795
971.00,0.0803
970.00,0.0808
969.00,0.0807
968.00,0.0800
967.00,0.0785
966.00,0.0765
965.00,0.0743
964.00,0.0720
963.00,0.0698
962.00,0.0680
961.00,0.0666
960.00,0.0656
959.00,0.0649
958.00,0.0646
957.00,0.0645
956.00,0.0647
955.00,0.0651
954.00,0.0658
953.00,0.0667
952.00,0.0676
951.00,0.0687
950.00,0.0697
949.00,0.0709
948.00,0.0721
947.00,0.0736
946.00,0.0753
945.00,0.0771
944.00,0.0791
943.00,0.0813
942.00,0.0839
941.00,0.0868
940.00,0.0902
939.00,0.0940
938.00,0.0981
937.00,0.1026
936.00,0.1070
935.00,0.1113
934.00,0.1153
933.00,0.1190
932.00,0.1222
931.00,0.1252
930.00,0.1278
929.00,0.1303
928.00,0.1325
927.00,0.1344
926.00,0.1358
925.00,0.1368
924.00,0.1376
923.00,0.1381
922.00,0.1385
921.00,0.1387
920.00,0.1387
919.00,0.1386
918.00,0.1384
917.00,0.1380
916.00,0.1373
915.00,0.1363
914.00,0.1351
913.00,0.1337
912.00,0.1322
911.00,0.1305
910.00,0.1287
909.00,0.1268
908.00,0.1250
907.00,0.1232
906.00,0.1214
905.00,0.1198
904.00,0.1182
903.00,0.1168
902.00,0.1156
901.00,0.1145
900.00,0.1137
899.00,0.1129
898.00,0.1124
897.00,0.1119
896.00,0.1116
895.00,0.1114
894.00,0.1113
893.00,0.1112
892.00,0.1110
891.00,0.1107
890.00,0.1102
889.00,0.1094
888.00,0.1084
887.00,0.1070
886.00,0.1052
885.00,0.1032
884.00,0.1008
883.00,0.0983
882.00,0.0959
881.00,0.0937
880.00,0.0919
879.00,0.0907
878.00,0.0901
877.00,0.0899
876.00,0.0901
875.00,0.0904
874.00,0.0907
873.00,0.0906
872.00,0.0904
871.00,0.0899
870.00,0.0894
869.00,0.0889
868.00,0.0884
867.00,0.0881
866.00,0.0880
865.00,0.0881
864.00,0.0884
863.00,0.0889
862.00,0.0898
861.00,0.0909
860.00,0.0923
859.00,0.0940
858.00,0.0959
857.00,0.0981
856.00,0.1006
855.00,0.1033
854.00,0.1062
853.00,0.1093
852.00,0.1124
851.00,0.1153
850.00,0.1179
849.00,0.1202
848.00,0.1220
847.00,0.1233
846.00,0.1240
845.00,0.1240
844.00,0.1232
843.00,0.1216
842.00,0.1194
841.00,0.1168
840.00,0.1139
839.00,0.1108
838.00,0.1077
837.00,0.1048
836.00,0.1019
835.00,0.0993
834.00,0.0970
833.00,0.0949
832.00,0.0931
831.00,0.0917
830.00,0.0906
829.00,0.0897
828.00,0.0890
827.00,0.0884
826.00,0.0879
825.00,0.0874
824.00,0.0869
823.00,0.0866
822.00,0.0863
821.00,0.0862
820.00,0.0862
819.00,0.0863
818.00,0.0865
817.00,0.0868
816.00,0.0871
815.00,0.0874
814.00,0.0880
813.00,0.0886
812.00,0.0894
811.00,0.0903
810.00,0.0913
809.00,0.0923
808.00,0.0932
807.00,0.0941
806.00,0.0950
805.00,0.0958
804.00,0.0966
803.00,0.0972
802.00,0.0978
801.00,0.0983
800.00,0.0987
799.00,0.0989
798.00,0.0990
797.00,0.0989
796.00,0.0987
795.00,0.0983
794.00,0.0979
793.00,0.0976
792.00,0.0974
791.00,0.0972
790.00,0.0971
789.00,0.0971
788.00,0.0972
787.00,0.0973
786.00,0.0976
785.00,0.0980
784.00,0.0984
783.00,0.0989
782.00,0.0995
781.00,0.1002
780.00,0.1012
779.00,0.1023
778.00,0.1034
777.00,0.1045
776.00,0.1055
775.00,0.1063
774.00,0.1069
773.00,0.1073
772.00,0.1075
771.00,0.1074
770.00,0.1073
769.00,0.1071
768.00,0.1068
767.00,0.1066
766.00,0.1065
765.00,0.1065
764.00,0.1067
763.00,0.1070
762.00,0.1074
761.00,0.1079
760.00,0.1084
759.00,0.1090
758.00,0.1096
757.00,0.1104
756.00,0.1113
755.00,0.1123
754.00,0.1136
753.00,0.1150
752.00,0.1167
751.00,0.1186
750.00,0.1208
749.00,0.1229
748.00,0.1251
747.00,0.1271
746.00,0.1289
745.00,0.1305
744.00,0.1319
743.00,0.1332
742.00,0.1344
741.00,0.1357
740.00,0.1369
739.00,0.1381
738.00,0.1393
737.00,0.1404
736.00,0.1412
735.00,0.1419
734.00,0.1423
733.00,0.1426
732.00,0.1428
731.00,0.1431
730.00,0.1434
729.00,0.1438
728.00,0.1442
727.00,0.1445
726.00,0.1449
725.00,0.1451
724.00,0.1452
723.00,0.1452
722.00,0.1451
721.00,0.1449
720.00,0.1445
719.00,0.1442
718.00,0.1442
717.00,0.1443
716.00,0.1447
715.00,0.1454
714.00,0.1463
713.00,0.1475
712.00,0.1490
711.00,0.1507
710.00,0.1525
709.00,0.1545
708.00,0.1564
707.00,0.1583
706.00,0.1600
705.00,0.1615
704.00,0.1626
703.00,0.1633
702.00,0.1637
701.00,0.1638
700.00,0.1635
699.00,0.1631
698.00,0.1624
697.00,0.1616
696.00,0.1606
695.00,0.1595
694.00,0.1583
693.00,0.1571
692.00,0.1559
691.00,0.1548
690.00,0.1539
689.00,0.1530
688.00,0.1522
687.00,0.1514
686.00,0.1507
685.00,0.1502
684.00,0.1499
683.00,0.1497
682.00,0.1497
681.00,0.1499
680.00,0.1501
679.00,0.1502
678.00,0.1504
677.00,0.1506
676.00,0.1508
675.00,0.1513
674.00,0.1519
673.00,0.1524
672.00,0.1527
671.00,0.1527
670.00,0.1528
669.00,0.1533
668.00,0.1545
667.00,0.1558
666.00,0.1563
665.00,0.1562
664.00,0.1559
663.00,0.1559
662.00,0.1561
661.00,0.1564
660.00,0.1567
659.00,0.1569
658.00,0.1572
657.00,0.1573
656.00,0.1574
655.00,0.1576
654.00,0.1578
653.00,0.1580
652.00,0.1583
651.00,0.1585
650.00,0.1588
649.00,0.1590
648.00,0.1593
647.00,0.1595
646.00,0.1598
645.00,0.1600
644.00,0.1603
643.00,0.1606
642.00,0.1609
641.00,0.1613
640.00,0.1617
639.00,0.1623
638.00,0.1630
637.00,0.1638
636.00,0.1645
635.00,0.1652
634.00,0.1660
633.00,0.1670
632.00,0.1680
631.00,0.1692
630.00,0.1704
629.00,0.1718
628.00,0.1733
627.00,0.1749
626.00,0.1766
625.00,0.1783
624.00,0.1800
623.00,0.1817
622.00,0.1832
621.00,0.1844
620.00,0.1852
619.00,0.1859
618.00,0.1866
617.00,0.1874
616.00,0.1883
615.00,0.1893
614.00,0.1904
613.00,0.1914
612.00,0.1923
611.00,0.1931
610.00,0.1940
609.00,0.1951
608.00,0.1964
607.00,0.1975
606.00,0.1984
605.00,0.1990
604.00,0.1994
603.00,0.1996
602.00,0.1998
601.00,0.1998
600.00,0.1998
599.00,0.1999
598.00,0.2003
597.00,0.2010
596.00,0.2021
595.00,0.2032
594.00,0.2042
593.00,0.2052
592.00,0.2061
591.00,0.2072
590.00,0.2082
589.00,0.2091
588.00,0.2100
587.00,0.2112
586.00,0.2127
585.00,0.2145
584.00,0.2163
583.00,0.2182
582.00,0.2201
581.00,0.2222
580.00,0.2240
579.00,0.2255
578.00,0.2266
577.00,0.2275
576.00,0.2284
575.00,0.2291
574.00,0.2297
573.00,0.2301
572.00,0.2304
571.00,0.2308
570.00,0.2315
569.00,0.2324
568.00,0.2334
567.00,0.2341
566.00,0.2345
565.00,0.2346
564.00,0.2347
563.00,0.2349
562.00,0.2352
561.00,0.2357
560.00,0.2363
559.00,0.2369
558.00,0.2375
557.00,0.2380
556.00,0.2382
555.00,0.2385
554.00,0.2389
553.00,0.2393
552.00,0.2397
551.00,0.2400
550.00,0.2404
549.00,0.2410
548.00,0.2418
547.00,0.2428
546.00,0.2438
545.00,0.2447
544.00,0.2452
543.00,0.2455
542.00,0.2455
541.00,0.2455
540.00,0.2454
539.00,0.2452
538.00,0.2449
537.00,0.2447
536.00,0.2446
535.00,0.2444
534.00,0.2439
533.00,0.2432
532.00,0.2425
531.00,0.2421
530.00,0.2422
529.00,0.2425
528.00,0.2426
527.00,0.2425
526.00,0.2423
525.00,0.2424
524.00,0.2425
523.00,0.2429
522.00,0.2434
521.00,0.2440
520.00,0.2447
519.00,0.2453
518.00,0.2457
517.00,0.2460
516.00,0.2460
515.00,0.2459
514.00,0.2454
513.00,0.2448
512.00,0.2443
511.00,0.2441
510.00,0.2443
509.00,0.2445
508.00,0.2445
507.00,0.2441
506.00,0.2437
505.00,0.2436
504.00,0.2436
503.00,0.2435
502.00,0.2432
501.00,0.2425
500.00,0.2417
499.00,0.2411
498.00,0.2408
497.00,0.2409
496.00,0.2412
495.00,0.2416
494.00,0.2421
493.00,0.2425
492.00,0.2428
491.00,0.2429
490.00,0.2427
489.00,0.2425
488.00,0.2428
487.00,0.2436
486.00,0.2445
485.00,0.2450
484.00,0.2450
483.00,0.2451
482.00,0.2455
481.00,0.2462
480.00,0.2467
479.00,0.2468
478.00,0.2466
477.00,0.2465
476.00,0.2467
475.00,0.2470
474.00,0.2472
473.00,0.2469
472.00,0.2463
471.00,0.2458
470.00,0.2455
469.00,0.2457
468.00,0.2461
467.00,0.2466
466.00,0.2469
465.00,0.2468
464.00,0.2466
463.00,0.2470
462.00,0.2479
461.00,0.2489
460.00,0.2494
459.00,0.2496
458.00,0.2500
457.00,0.2503
456.00,0.2502
455.00,0.2499
454.00,0.2499
453.00,0.2505
452.00,0.2513
451.00,0.2517
450.00,0.2517
