Created as New Dataset,Sample 009 By Administrator Date Thursday, May 29 2025
cm-1,A
4000.00,0.0082
3999.00,0.0082
3998.00,0.0082
3997.00,0.0083
3996.00,0.0083
3995.00,0.0082
3994.00,0.0082
3993.00,0.0082
3992.00,0.0082
3991.00,0.0082
3990.00,0.0083
3989.00,0.0083
3988.00,0.0083
3987.00,0.0083
3986.00,0.0083
3985.00,0.0082
3984.00,0.0082
3983.00,0.0083
3982.00,0.0083
3981.00,0.0083
3980.00,0.0083
3979.00,0.0083
3978.00,0.0083
3977.00,0.0083
3976.00,0.0082
3975.00,0.0082
3974.00,0.0082
3973.00,0.0082
3972.00,0.0082
3971.00,0.0082
3970.00,0.0082
3969.00,0.0082
3968.00,0.0082
3967.00,0.0082
3966.00,0.0083
3965.00,0.0083
3964.00,0.0083
3963.00,0.0083
3962.00,0.0083
3961.00,0.0083
3960.00,0.0083
3959.00,0.0082
3958.00,0.0082
3957.00,0.0082
3956.00,0.0082
3955.00,0.0082
3954.00,0.0082
3953.00,0.0083
3952.00,0.0083
3951.00,0.0083
3950.00,0.0083
3949.00,0.0083
3948.00,0.0083
3947.00,0.0084
3946.00,0.0084
3945.00,0.0084
3944.00,0.0083
3943.00,0.0083
3942.00,0.0083
3941.00,0.0083
3940.00,0.0083
3939.00,0.0083
3938.00,0.0083
3937.00,0.0083
3936.00,0.0083
3935.00,0.0084
3934.00,0.0084
3933.00,0.0084
3932.00,0.0084
3931.00,0.0084
3930.00,0.0083
3929.00,0.0083
3928.00,0.0083
3927.00,0.0083
3926.00,0.0083
3925.00,0.0083
3924.00,0.0083
3923.00,0.0082
3922.00,0.0082
3921.00,0.0082
3920.00,0.0083
3919.00,0.0083
3918.00,0.0083
3917.00,0.0083
3916.00,0.0083
3915.00,0.0083
3914.00,0.0082
3913.00,0.0082
3912.00,0.0082
3911.00,0.0082
3910.00,0.0082
3909.00,0.0082
3908.00,0.0083
3907.00,0.0083
3906.00,0.0084
3905.00,0.0084
3904.00,0.0085
3903.00,0.0085
3902.00,0.0086
3901.00,0.0085
3900.00,0.0084
3899.00,0.0083
3898.00,0.0082
3897.00,0.0082
3896.00,0.0082
3895.00,0.0082
3894.00,0.0082
3893.00,0.0082
3892.00,0.0082
3891.00,0.0082
3890.00,0.0083
3889.00,0.0083
3888.00,0.0083
3887.00,0.0083
3886.00,0.0083
3885.00,0.0083
3884.00,0.0083
3883.00,0.0082
3882.00,0.0082
3881.00,0.0081
3880.00,0.0081
3879.00,0.0082
3878.00,0.0082
3877.00,0.0082
3876.00,0.0082
3875.00,0.0082
3874.00,0.0083
3873.00,0.0083
3872.00,0.0083
3871.00,0.0083
3870.00,0.0083
3869.00,0.0083
3868.00,0.0083
3867.00,0.0084
3866.00,0.0084
3865.00,0.0084
3864.00,0.0083
3863.00,0.0083
3862.00,0.0083
3861.00,0.0082
3860.00,0.0082
3859.00,0.0082
3858.00,0.0082
3857.00,0.0082
3856.00,0.0082
3855.00,0.0083
3854.00,0.0083
3853.00,0.0082
3852.00,0.0081
3851.00,0.0080
3850.00,0.0080
3849.00,0.0080
3848.00,0.0081
3847.00,0.0081
3846.00,0.0082
3845.00,0.0082
3844.00,0.0083
3843.00,0.0083
3842.00,0.0083
3841.00,0.0083
3840.00,0.0083
3839.00,0.0083
3838.00,0.0083
3837.00,0.0083
3836.00,0.0082
3835.00,0.0083
3834.00,0.0083
3833.00,0.0083
3832.00,0.0083
3831.00,0.0083
3830.00,0.0083
3829.00,0.0082
3828.00,0.0082
3827.00,0.0082
3826.00,0.0083
3825.00,0.0083
3824.00,0.0084
3823.00,0.0084
3822.00,0.0084
3821.00,0.0084
3820.00,0.0084
3819.00,0.0083
3818.00,0.0083
3817.00,0.0083
3816.00,0.0083
3815.00,0.0083
3814.00,0.0083
3813.00,0.0083
3812.00,0.0083
3811.00,0.0083
3810.00,0.0084
3809.00,0.0084
3808.00,0.0084
3807.00,0.0085
3806.00,0.0085
3805.00,0.0085
3804.00,0.0085
3803.00,0.0084
3802.00,0.0084
3801.00,0.0084
3800.00,0.0084
3799.00,0.0084
3798.00,0.0084
3797.00,0.0084
3796.00,0.0084
3795.00,0.0084
3794.00,0.0084
3793.00,0.0084
3792.00,0.0084
3791.00,0.0085
3790.00,0.0085
3789.00,0.0085
3788.00,0.0085
3787.00,0.0086
3786.00,0.0086
3785.00,0.0086
3784.00,0.0087
3783.00,0.0087
3782.00,0.0088
3781.00,0.0088
3780.00,0.0088
3779.00,0.0087
3778.00,0.0087
3777.00,0.0087
3776.00,0.0088
3775.00,0.0088
3774.00,0.0088
3773.00,0.0089
3772.00,0.0089
3771.00,0.0089
3770.00,0.0088
3769.00,0.0088
3768.00,0.0088
3767.00,0.0088
3766.00,0.0089
3765.00,0.0089
3764.00,0.0089
3763.00,0.0090
3762.00,0.0090
3761.00,0.0091
3760.00,0.0091
3759.00,0.0092
3758.00,0.0092
3757.00,0.0092
3756.00,0.0092
3755.00,0.0092
3754.00,0.0092
3753.00,0.0093
3752.00,0.0093
3751.00,0.0094
3750.00,0.0094
3749.00,0.0094
3748.00,0.0094
3747.00,0.0094
3746.00,0.0094
3745.00,0.0093
3744.00,0.0093
3743.00,0.0093
3742.00,0.0093
3741.00,0.0094
3740.00,0.0095
3739.00,0.0096
3738.00,0.0096
3737.00,0.0097
3736.00,0.0096
3735.00,0.0096
3734.00,0.0095
3733.00,0.0095
3732.00,0.0095
3731.00,0.0095
3730.00,0.0096
3729.00,0.0097
3728.00,0.0098
3727.00,0.0098
3726.00,0.0099
3725.00,0.0099
3724.00,0.0100
3723.00,0.0100
3722.00,0.0100
3721.00,0.0100
3720.00,0.0100
3719.00,0.0101
3718.00,0.0102
3717.00,0.0103
3716.00,0.0104
3715.00,0.0106
3714.00,0.0107
3713.00,0.0108
3712.00,0.0108
3711.00,0.0108
3710.00,0.0108
3709.00,0.0108
3708.00,0.0108
3707.00,0.0109
3706.00,0.0110
3705.00,0.0110
3704.00,0.0111
3703.00,0.0112
3702.00,0.0113
3701.00,0.0114
3700.00,0.0116
3699.00,0.0117
3698.00,0.0119
3697.00,0.0120
3696.00,0.0122
3695.00,0.0123
3694.00,0.0125
3693.00,0.0126
3692.00,0.0127
3691.00,0.0128
3690.00,0.0130
3689.00,0.0133
3688.00,0.0135
3687.00,0.0136
3686.00,0.0138
3685.00,0.0140
3684.00,0.0142
3683.00,0.0145
3682.00,0.0148
3681.00,0.0150
3680.00,0.0152
3679.00,0.0154
3678.00,0.0156
3677.00,0.0158
3676.00,0.0161
3675.00,0.0165
3674.00,0.0169
3673.00,0.0173
3672.00,0.0176
3671.00,0.0179
3670.00,0.0183
3669.00,0.0187
3668.00,0.0191
3667.00,0.0195
3666.00,0.0199
3665.00,0.0203
3664.00,0.0207
3663.00,0.0211
3662.00,0.0214
3661.00,0.0218
3660.00,0.0222
3659.00,0.0227
3658.00,0.0232
3657.00,0.0237
3656.00,0.0243
3655.00,0.0248
3654.00,0.0253
3653.00,0.0257
3652.00,0.0261
3651.00,0.0266
3650.00,0.0273
3649.00,0.0281
3648.00,0.0289
3647.00,0.0297
3646.00,0.0304
3645.00,0.0309
3644.00,0.0315
3643.00,0.0320
3642.00,0.0325
3641.00,0.0331
3640.00,0.0337
3639.00,0.0344
3638.00,0.0351
3637.00,0.0357
3636.00,0.0363
3635.00,0.0369
3634.00,0.0374
3633.00,0.0380
3632.00,0.0385
3631.00,0.0391
3630.00,0.0399
3629.00,0.0407
3628.00,0.0417
3627.00,0.0425
3626.00,0.0433
3625.00,0.0439
3624.00,0.0446
3623.00,0.0451
3622.00,0.0457
3621.00,0.0463
3620.00,0.0470
3619.00,0.0478
3618.00,0.0487
3617.00,0.0495
3616.00,0.0502
3615.00,0.0508
3614.00,0.0515
3613.00,0.0522
3612.00,0.0529
3611.00,0.0536
3610.00,0.0543
3609.00,0.0551
3608.00,0.0558
3607.00,0.0566
3606.00,0.0573
3605.00,0.0579
3604.00,0.0586
3603.00,0.0592
3602.00,0.0598
3601.00,0.0604
3600.00,0.0610
3599.00,0.0617
3598.00,0.0623
3597.00,0.0630
3596.00,0.0637
3595.00,0.0644
3594.00,0.0651
3593.00,0.0658
3592.00,0.0665
3591.00,0.0671
3590.00,0.0677
3589.00,0.0683
3588.00,0.0690
3587.00,0.0699
3586.00,0.0707
3585.00,0.0714
3584.00,0.0721
3583.00,0.0727
3582.00,0.0733
3581.00,0.0739
3580.00,0.0745
3579.00,0.0751
3578.00,0.0757
3577.00,0.0763
3576.00,0.0769
3575.00,0.0775
3574.00,0.0781
3573.00,0.0786
3572.00,0.0792
3571.00,0.0797
3570.00,0.0803
3569.00,0.0808
3568.00,0.0815
3567.00,0.0822
3566.00,0.0830
3565.00,0.0838
3564.00,0.0845
3563.00,0.0852
3562.00,0.0857
3561.00,0.0863
3560.00,0.0868
3559.00,0.0874
3558.00,0.0879
3557.00,0.0885
3556.00,0.0891
3555.00,0.0897
3554.00,0.0903
3553.00,0.0909
3552.00,0.0916
3551.00,0.0922
3550.00,0.0928
3549.00,0.0934
3548.00,0.0940
3547.00,0.0946
3546.00,0.0952
3545.00,0.0959
3544.00,0.0965
3543.00,0.0972
3542.00,0.0978
3541.00,0.0983
3540.00,0.0989
3539.00,0.0994
3538.00,0.0999
3537.00,0.1005
3536.00,0.1010
3535.00,0.1016
3534.00,0.1022
3533.00,0.1027
3532.00,0.1032
3531.00,0.1038
3530.00,0.1043
3529.00,0.1049
3528.00,0.1056
3527.00,0.1062
3526.00,0.1068
3525.00,0.1074
3524.00,0.1080
3523.00,0.1086
3522.00,0.1091
3521.00,0.1097
3520.00,0.1103
3519.00,0.1109
3518.00,0.1114
3517.00,0.1120
3516.00,0.1126
3515.00,0.1132
3514.00,0.1137
3513.00,0.1143
3512.00,0.1148
3511.00,0.1153
3510.00,0.1159
3509.00,0.1165
3508.00,0.1171
3507.00,0.1177
3506.00,0.1182
3505.00,0.1188
3504.00,0.1194
3503.00,0.1200
3502.00,0.1206
3501.00,0.1212
3500.00,0.1218
3499.00,0.1223
3498.00,0.1228
3497.00,0.1234
3496.00,0.1239
3495.00,0.1244
3494.00,0.1249
3493.00,0.1254
3492.00,0.1259
3491.00,0.1264
3490.00,0.1269
3489.00,0.1275
3488.00,0.1281
3487.00,0.1287
3486.00,0.1293
3485.00,0.1298
3484.00,0.1303
3483.00,0.1308
3482.00,0.1314
3481.00,0.1319
3480.00,0.1325
3479.00,0.1329
3478.00,0.1333
3477.00,0.1337
3476.00,0.1342
3475.00,0.1347
3474.00,0.1352
3473.00,0.1358
3472.00,0.1364
3471.00,0.1370
3470.00,0.1376
3469.00,0.1382
3468.00,0.1387
3467.00,0.1391
3466.00,0.1395
3465.00,0.1399
3464.00,0.1404
3463.00,0.1408
3462.00,0.1413
3461.00,0.1418
3460.00,0.1422
3459.00,0.1426
3458.00,0.1430
3457.00,0.1434
3456.00,0.1439
3455.00,0.1443
3454.00,0.1447
3453.00,0.1452
3452.00,0.1456
3451.00,0.1461
3450.00,0.1465
3449.00,0.1469
3448.00,0.1472
3447.00,0.1476
3446.00,0.1480
3445.00,0.1484
3444.00,0.1488
3443.00,0.1492
3442.00,0.1497
3441.00,0.1501
3440.00,0.1506
3439.00,0.1511
3438.00,0.1515
3437.00,0.1519
3436.00,0.1522
3435.00,0.1525
3434.00,0.1528
3433.00,0.1531
3432.00,0.1535
3431.00,0.1538
3430.00,0.1542
3429.00,0.1544
3428.00,0.1547
3427.00,0.1549
3426.00,0.1551
3425.00,0.1553
3424.00,0.1555
3423.00,0.1558
3422.00,0.1561
3421.00,0.1564
3420.00,0.1566
3419.00,0.1569
3418.00,0.1572
3417.00,0.1574
3416.00,0.1577
3415.00,0.1579
3414.00,0.1581
3413.00,0.1584
3412.00,0.1585
3411.00,0.1587
3410.00,0.1588
3409.00,0.1589
3408.00,0.1590
3407.00,0.1591
3406.00,0.1593
3405.00,0.1596
3404.00,0.1598
3403.00,0.1601
3402.00,0.1602
3401.00,0.1603
3400.00,0.1603
3399.00,0.1602
3398.00,0.1602
3397.00,0.1603
3396.00,0.1604
3395.00,0.1605
3394.00,0.1605
3393.00,0.1606
3392.00,0.1605
3391.00,0.1604
3390.00,0.1603
3389.00,0.1602
3388.00,0.1601
3387.00,0.1600
3386.00,0.1599
3385.00,0.1598
3384.00,0.1597
3383.00,0.1596
3382.00,0.1596
3381.00,0.1596
3380.00,0.1595
3379.00,0.1594
3378.00,0.1593
3377.00,0.1591
3376.00,0.1590
3375.00,0.1588
3374.00,0.1587
3373.00,0.1586
3372.00,0.1585
3371.00,0.1584
3370.00,0.1582
3369.00,0.1580
3368.00,0.1578
3367.00,0.1574
3366.00,0.1571
3365.00,0.1567
3364.00,0.1565
3363.00,0.1562
3362.00,0.1559
3361.00,0.1557
3360.00,0.1553
3359.00,0.1550
3358.00,0.1547
3357.00,0.1543
3356.00,0.1540
3355.00,0.1537
3354.00,0.1535
3353.00,0.1532
3352.00,0.1529
3351.00,0.1526
3350.00,0.1523
3349.00,0.1519
3348.00,0.1515
3347.00,0.1511
3346.00,0.1507
3345.00,0.1504
3344.00,0.1500
3343.00,0.1497
3342.00,0.1494
3341.00,0.1490
3340.00,0.1486
3339.00,0.1482
3338.00,0.1478
3337.00,0.1473
3336.00,0.1469
3335.00,0.1464
3334.00,0.1460
3333.00,0.1456
3332.00,0.1451
3331.00,0.1447
3330.00,0.1443
3329.00,0.1439
3328.00,0.1435
3327.00,0.1431
3326.00,0.1428
3325.00,0.1424
3324.00,0.1419
3323.00,0.1415
3322.00,0.1410
3321.00,0.1406
3320.00,0.1402
3319.00,0.1398
3318.00,0.1394
3317.00,0.1391
3316.00,0.1388
3315.00,0.1384
3314.00,0.1380
3313.00,0.1376
3312.00,0.1372
3311.00,0.1368
3310.00,0.1364
3309.00,0.1360
3308.00,0.1357
3307.00,0.1353
3306.00,0.1350
3305.00,0.1346
3304.00,0.1342
3303.00,0.1338
3302.00,0.1334
3301.00,0.1330
3300.00,0.1325
3299.00,0.1322
3298.00,0.1318
3297.00,0.1315
3296.00,0.1312
3295.00,0.1308
3294.00,0.1305
3293.00,0.1301
3292.00,0.1297
3291.00,0.1294
3290.00,0.1290
3289.00,0.1287
3288.00,0.1283
3287.00,0.1280
3286.00,0.1276
3285.00,0.1272
3284.00,0.1269
3283.00,0.1266
3282.00,0.1262
3281.00,0.1258
3280.00,0.1254
3279.00,0.1250
3278.00,0.1247
3277.00,0.1244
3276.00,0.1241
3275.00,0.1237
3274.00,0.1234
3273.00,0.1231
3272.00,0.1227
3271.00,0.1224
3270.00,0.1220
3269.00,0.1216
3268.00,0.1212
3267.00,0.1209
3266.00,0.1205
3265.00,0.1201
3264.00,0.1197
3263.00,0.1193
3262.00,0.1189
3261.00,0.1186
3260.00,0.1182
3259.00,0.1179
3258.00,0.1176
3257.00,0.1172
3256.00,0.1167
3255.00,0.1163
3254.00,0.1159
3253.00,0.1154
3252.00,0.1150
3251.00,0.1146
3250.00,0.1141
3249.00,0.1137
3248.00,0.1133
3247.00,0.1129
3246.00,0.1124
3245.00,0.1119
3244.00,0.1115
3243.00,0.1111
3242.00,0.1106
3241.00,0.1102
3240.00,0.1097
3239.00,0.1093
3238.00,0.1089
3237.00,0.1084
3236.00,0.1080
3235.00,0.1075
3234.00,0.1070
3233.00,0.1065
3232.00,0.1059
3231.00,0.1054
3230.00,0.1048
3229.00,0.1043
3228.00,0.1038
3227.00,0.1032
3226.00,0.1027
3225.00,0.1022
3224.00,0.1017
3223.00,0.1011
3222.00,0.1006
3221.00,0.1001
3220.00,0.0995
3219.00,0.0990
3218.00,0.0985
3217.00,0.0979
3216.00,0.0973
3215.00,0.0967
3214.00,0.0962
3213.00,0.0956
3212.00,0.0950
3211.00,0.0945
3210.00,0.0939
3209.00,0.0934
3208.00,0.0928
3207.00,0.0922
3206.00,0.0917
3205.00,0.0911
3204.00,0.0905
3203.00,0.0899
3202.00,0.0893
3201.00,0.0887
3200.00,0.0881
3199.00,0.0875
3198.00,0.0870
3197.00,0.0864
3196.00,0.0858
3195.00,0.0852
3194.00,0.0846
3193.00,0.0841
3192.00,0.0835
3191.00,0.0829
3190.00,0.0823
3189.00,0.0817
3188.00,0.0811
3187.00,0.0806
3186.00,0.0800
3185.00,0.0794
3184.00,0.0788
3183.00,0.0782
3182.00,0.0776
3181.00,0.0770
3180.00,0.0764
3179.00,0.0759
3178.00,0.0753
3177.00,0.0748
3176.00,0.0742
3175.00,0.0737
3174.00,0.0731
3173.00,0.0725
3172.00,0.0719
3171.00,0.0714
3170.00,0.0709
3169.00,0.0704
3168.00,0.0698
3167.00,0.0693
3166.00,0.0687
3165.00,0.0681
3164.00,0.0676
3163.00,0.0670
3162.00,0.0666
3161.00,0.0661
3160.00,0.0656
3159.00,0.0652
3158.00,0.0647
3157.00,0.0642
3156.00,0.0637
3155.00,0.0632
3154.00,0.0627
3153.00,0.0623
3152.00,0.0618
3151.00,0.0613
3150.00,0.0608
3149.00,0.0604
3148.00,0.0599
3147.00,0.0594
3146.00,0.0589
3145.00,0.0584
3144.00,0.0580
3143.00,0.0575
3142.00,0.0571
3141.00,0.0566
3140.00,0.0562
3139.00,0.0557
3138.00,0.0553
3137.00,0.0548
3136.00,0.0543
3135.00,0.0539
3134.00,0.0535
3133.00,0.0531
3132.00,0.0527
3131.00,0.0523
3130.00,0.0519
3129.00,0.0514
3128.00,0.0510
3127.00,0.0506
3126.00,0.0502
3125.00,0.0499
3124.00,0.0495
3123.00,0.0492
3122.00,0.0489
3121.00,0.0485
3120.00,0.0482
3119.00,0.0479
3118.00,0.0475
3117.00,0.0471
3116.00,0.0467
3115.00,0.0463
3114.00,0.0459
3113.00,0.0455
3112.00,0.0452
3111.00,0.0449
3110.00,0.0445
3109.00,0.0442
3108.00,0.0439
3107.00,0.0435
3106.00,0.0431
3105.00,0.0428
3104.00,0.0424
3103.00,0.0421
3102.00,0.0418
3101.00,0.0415
3100.00,0.0413
3099.00,0.0410
3098.00,0.0407
3097.00,0.0404
3096.00,0.0401
3095.00,0.0398
3094.00,0.0395
3093.00,0.0393
3092.00,0.0390
3091.00,0.0387
3090.00,0.0384
3089.00,0.0381
3088.00,0.0379
3087.00,0.0376
3086.00,0.0374
3085.00,0.0371
3084.00,0.0368
3083.00,0.0365
3082.00,0.0363
3081.00,0.0360
3080.00,0.0358
3079.00,0.0355
3078.00,0.0353
3077.00,0.0350
3076.00,0.0347
3075.00,0.0344
3074.00,0.0341
3073.00,0.0339
3072.00,0.0337
3071.00,0.0334
3070.00,0.0332
3069.00,0.0330
3068.00,0.0328
3067.00,0.0326
3066.00,0.0325
3065.00,0.0323
3064.00,0.0320
3063.00,0.0318
3062.00,0.0316
3061.00,0.0314
3060.00,0.0312
3059.00,0.0309
3058.00,0.0307
3057.00,0.0305
3056.00,0.0302
3055.00,0.0300
3054.00,0.0298
3053.00,0.0297
3052.00,0.0295
3051.00,0.0293
3050.00,0.0291
3049.00,0.0289
3048.00,0.0287
3047.00,0.0286
3046.00,0.0284
3045.00,0.0283
3044.00,0.0282
3043.00,0.0280
3042.00,0.0279
3041.00,0.0277
3040.00,0.0275
3039.00,0.0273
3038.00,0.0271
3037.00,0.0269
3036.00,0.0267
3035.00,0.0266
3034.00,0.0264
3033.00,0.0263
3032.00,0.0261
3031.00,0.0259
3030.00,0.0258
3029.00,0.0256
3028.00,0.0255
3027.00,0.0254
3026.00,0.0253
3025.00,0.0252
3024.00,0.0250
3023.00,0.0249
3022.00,0.0248
3021.00,0.0246
3020.00,0.0245
3019.00,0.0244
3018.00,0.0243
3017.00,0.0242
3016.00,0.0241
3015.00,0.0240
3014.00,0.0238
3013.00,0.0237
3012.00,0.0236
3011.00,0.0236
3010.00,0.0235
3009.00,0.0234
3008.00,0.0233
3007.00,0.0232
3006.00,0.0232
3005.00,0.0231
3004.00,0.0230
3003.00,0.0229
3002.00,0.0229
3001.00,0.0229
3000.00,0.0228
2999.00,0.0228
2998.00,0.0227
2997.00,0.0227
2996.00,0.0226
2995.00,0.0226
2994.00,0.0226
2993.00,0.0226
2992.00,0.0226
2991.00,0.0226
2990.00,0.0226
2989.00,0.0225
2988.00,0.0225
2987.00,0.0225
2986.00,0.0225
2985.00,0.0225
2984.00,0.0225
2983.00,0.0225
2982.00,0.0226
2981.00,0.0226
2980.00,0.0226
2979.00,0.0227
2978.00,0.0227
2977.00,0.0228
2976.00,0.0228
2975.00,0.0229
2974.00,0.0229
2973.00,0.0228
2972.00,0.0228
2971.00,0.0229
2970.00,0.0229
2969.00,0.0230
2968.00,0.0230
2967.00,0.0230
2966.00,0.0229
2965.00,0.0229
2964.00,0.0229
2963.00,0.0229
2962.00,0.0229
2961.00,0.0229
2960.00,0.0229
2959.00,0.0229
2958.00,0.0229
2957.00,0.0228
2956.00,0.0228
2955.00,0.0227
2954.00,0.0227
2953.00,0.0226
2952.00,0.0226
2951.00,0.0225
2950.00,0.0225
2949.00,0.0225
2948.00,0.0225
2947.00,0.0225
2946.00,0.0225
2945.00,0.0224
2944.00,0.0224
2943.00,0.0224
2942.00,0.0224
2941.00,0.0224
2940.00,0.0224
2939.00,0.0224
2938.00,0.0225
2937.00,0.0225
2936.00,0.0225
2935.00,0.0225
2934.00,0.0226
2933.00,0.0226
2932.00,0.0226
2931.00,0.0226
2930.00,0.0227
2929.00,0.0228
2928.00,0.0228
2927.00,0.0228
2926.00,0.0229
2925.00,0.0229
2924.00,0.0230
2923.00,0.0230
2922.00,0.0231
2921.00,0.0230
2920.00,0.0230
2919.00,0.0229
2918.00,0.0229
2917.00,0.0228
2916.00,0.0227
2915.00,0.0225
2914.00,0.0224
2913.00,0.0222
2912.00,0.0220
2911.00,0.0219
2910.00,0.0217
2909.00,0.0215
2908.00,0.0214
2907.00,0.0212
2906.00,0.0211
2905.00,0.0210
2904.00,0.0208
2903.00,0.0207
2902.00,0.0205
2901.00,0.0203
2900.00,0.0202
2899.00,0.0201
2898.00,0.0200
2897.00,0.0199
2896.00,0.0198
2895.00,0.0196
2894.00,0.0194
2893.00,0.0193
2892.00,0.0191
2891.00,0.0190
2890.00,0.0189
2889.00,0.0188
2888.00,0.0187
2887.00,0.0186
2886.00,0.0185
2885.00,0.0183
2884.00,0.0182
2883.00,0.0181
2882.00,0.0180
2881.00,0.0179
2880.00,0.0179
2879.00,0.0178
2878.00,0.0178
2877.00,0.0177
2876.00,0.0176
2875.00,0.0175
2874.00,0.0174
2873.00,0.0173
2872.00,0.0172
2871.00,0.0171
2870.00,0.0170
2869.00,0.0169
2868.00,0.0168
2867.00,0.0166
2866.00,0.0165
2865.00,0.0164
2864.00,0.0163
2863.00,0.0162
2862.00,0.0162
2861.00,0.0161
2860.00,0.0161
2859.00,0.0161
2858.00,0.0160
2857.00,0.0160
2856.00,0.0160
2855.00,0.0160
2854.00,0.0160
2853.00,0.0160
2852.00,0.0160
2851.00,0.0159
2850.00,0.0158
2849.00,0.0156
2848.00,0.0154
2847.00,0.0151
2846.00,0.0149
2845.00,0.0146
2844.00,0.0144
2843.00,0.0143
2842.00,0.0142
2841.00,0.0141
2840.00,0.0140
2839.00,0.0139
2838.00,0.0138
2837.00,0.0137
2836.00,0.0136
2835.00,0.0135
2834.00,0.0134
2833.00,0.0133
2832.00,0.0133
2831.00,0.0132
2830.00,0.0131
2829.00,0.0130
2828.00,0.0130
2827.00,0.0129
2826.00,0.0129
2825.00,0.0128
2824.00,0.0127
2823.00,0.0127
2822.00,0.0126
2821.00,0.0126
2820.00,0.0125
2819.00,0.0124
2818.00,0.0124
2817.00,0.0123
2816.00,0.0123
2815.00,0.0122
2814.00,0.0122
2813.00,0.0122
2812.00,0.0121
2811.00,0.0121
2810.00,0.0121
2809.00,0.0121
2808.00,0.0120
2807.00,0.0120
2806.00,0.0119
2805.00,0.0119
2804.00,0.0119
2803.00,0.0118
2802.00,0.0117
2801.00,0.0117
2800.00,0.0116
2799.00,0.0116
2798.00,0.0116
2797.00,0.0116
2796.00,0.0116
2795.00,0.0116
2794.00,0.0115
2793.00,0.0115
2792.00,0.0115
2791.00,0.0115
2790.00,0.0115
2789.00,0.0114
2788.00,0.0114
2787.00,0.0113
2786.00,0.0112
2785.00,0.0111
2784.00,0.0111
2783.00,0.0111
2782.00,0.0110
2781.00,0.0111
2780.00,0.0111
2779.00,0.0110
2778.00,0.0110
2777.00,0.0110
2776.00,0.0110
2775.00,0.0109
2774.00,0.0109
2773.00,0.0108
2772.00,0.0108
2771.00,0.0107
2770.00,0.0107
2769.00,0.0107
2768.00,0.0107
2767.00,0.0106
2766.00,0.0106
2765.00,0.0106
2764.00,0.0106
2763.00,0.0105
2762.00,0.0105
2761.00,0.0105
2760.00,0.0104
2759.00,0.0104
2758.00,0.0104
2757.00,0.0104
2756.00,0.0103
2755.00,0.0103
2754.00,0.0103
2753.00,0.0103
2752.00,0.0103
2751.00,0.0103
2750.00,0.0103
2749.00,0.0102
2748.00,0.0102
2747.00,0.0102
2746.00,0.0102
2745.00,0.0102
2744.00,0.0102
2743.00,0.0101
2742.00,0.0101
2741.00,0.0100
2740.00,0.0100
2739.00,0.0100
2738.00,0.0100
2737.00,0.0100
2736.00,0.0100
2735.00,0.0100
2734.00,0.0100
2733.00,0.0099
2732.00,0.0099
2731.00,0.0099
2730.00,0.0099
2729.00,0.0099
2728.00,0.0099
2727.00,0.0099
2726.00,0.0099
2725.00,0.0099
2724.00,0.0098
2723.00,0.0098
2722.00,0.0098
2721.00,0.0097
2720.00,0.0097
2719.00,0.0097
2718.00,0.0097
2717.00,0.0097
2716.00,0.0097
2715.00,0.0096
2714.00,0.0096
2713.00,0.0096
2712.00,0.0096
2711.00,0.0096
2710.00,0.0096
2709.00,0.0096
2708.00,0.0096
2707.00,0.0096
2706.00,0.0095
2705.00,0.0095
2704.00,0.0095
2703.00,0.0095
2702.00,0.0095
2701.00,0.0095
2700.00,0.0095
2699.00,0.0095
2698.00,0.0094
2697.00,0.0094
2696.00,0.0094
2695.00,0.0094
2694.00,0.0094
2693.00,0.0094
2692.00,0.0093
2691.00,0.0093
2690.00,0.0093
2689.00,0.0093
2688.00,0.0093
2687.00,0.0093
2686.00,0.0093
2685.00,0.0093
2684.00,0.0093
2683.00,0.0092
2682.00,0.0092
2681.00,0.0092
2680.00,0.0092
2679.00,0.0092
2678.00,0.0092
2677.00,0.0092
2676.00,0.0092
2675.00,0.0091
2674.00,0.0091
2673.00,0.0090
2672.00,0.0090
2671.00,0.0090
2670.00,0.0090
2669.00,0.0090
2668.00,0.0091
2667.00,0.0091
2666.00,0.0091
2665.00,0.0091
2664.00,0.0092
2663.00,0.0092
2662.00,0.0092
2661.00,0.0093
2660.00,0.0093
2659.00,0.0094
2658.00,0.0094
2657.00,0.0094
2656.00,0.0094
2655.00,0.0094
2654.00,0.0094
2653.00,0.0094
2652.00,0.0094
2651.00,0.0093
2650.00,0.0093
2649.00,0.0093
2648.00,0.0093
2647.00,0.0093
2646.00,0.0093
2645.00,0.0092
2644.00,0.0092
2643.00,0.0091
2642.00,0.0091
2641.00,0.0090
2640.00,0.0090
2639.00,0.0090
2638.00,0.0090
2637.00,0.0090
2636.00,0.0090
2635.00,0.0090
2634.00,0.0090
2633.00,0.0089
2632.00,0.0089
2631.00,0.0089
2630.00,0.0088
2629.00,0.0088
2628.00,0.0087
2627.00,0.0087
2626.00,0.0087
2625.00,0.0087
2624.00,0.0086
2623.00,0.0086
2622.00,0.0085
2621.00,0.0084
2620.00,0.0084
2619.00,0.0084
2618.00,0.0084
2617.00,0.0084
2616.00,0.0083
2615.00,0.0084
2614.00,0.0084
2613.00,0.0084
2612.00,0.0084
2611.00,0.0083
2610.00,0.0083
2609.00,0.0083
2608.00,0.0082
2607.00,0.0082
2606.00,0.0081
2605.00,0.0081
2604.00,0.0081
2603.00,0.0081
2602.00,0.0082
2601.00,0.0082
2600.00,0.0081
2599.00,0.0080
2598.00,0.0079
2597.00,0.0078
2596.00,0.0077
2595.00,0.0077
2594.00,0.0077
2593.00,0.0077
2592.00,0.0077
2591.00,0.0077
2590.00,0.0078
2589.00,0.0078
2588.00,0.0078
2587.00,0.0078
2586.00,0.0077
2585.00,0.0076
2584.00,0.0076
2583.00,0.0076
2582.00,0.0077
2581.00,0.0077
2580.00,0.0077
2579.00,0.0077
2578.00,0.0076
2577.00,0.0075
2576.00,0.0074
2575.00,0.0074
2574.00,0.0074
2573.00,0.0074
2572.00,0.0074
2571.00,0.0074
2570.00,0.0074
2569.00,0.0074
2568.00,0.0074
2567.00,0.0074
2566.00,0.0073
2565.00,0.0073
2564.00,0.0073
2563.00,0.0074
2562.00,0.0074
2561.00,0.0074
2560.00,0.0074
2559.00,0.0073
2558.00,0.0073
2557.00,0.0072
2556.00,0.0072
2555.00,0.0072
2554.00,0.0072
2553.00,0.0072
2552.00,0.0072
2551.00,0.0072
2550.00,0.0072
2549.00,0.0072
2548.00,0.0072
2547.00,0.0072
2546.00,0.0072
2545.00,0.0072
2544.00,0.0072
2543.00,0.0071
2542.00,0.0071
2541.00,0.0071
2540.00,0.0071
2539.00,0.0071
2538.00,0.0071
2537.00,0.0071
2536.00,0.0071
2535.00,0.0070
2534.00,0.0070
2533.00,0.0069
2532.00,0.0069
2531.00,0.0068
2530.00,0.0068
2529.00,0.0068
2528.00,0.0068
2527.00,0.0068
2526.00,0.0068
2525.00,0.0068
2524.00,0.0068
2523.00,0.0068
2522.00,0.0068
2521.00,0.0068
2520.00,0.0068
2519.00,0.0068
2518.00,0.0069
2517.00,0.0069
2516.00,0.0069
2515.00,0.0069
2514.00,0.0069
2513.00,0.0069
2512.00,0.0069
2511.00,0.0069
2510.00,0.0069
2509.00,0.0069
2508.00,0.0069
2507.00,0.0070
2506.00,0.0069
2505.00,0.0069
2504.00,0.0069
2503.00,0.0069
2502.00,0.0069
2501.00,0.0070
2500.00,0.0070
2499.00,0.0070
2498.00,0.0069
2497.00,0.0069
2496.00,0.0070
2495.00,0.0070
2494.00,0.0070
2493.00,0.0070
2492.00,0.0070
2491.00,0.0070
2490.00,0.0069
2489.00,0.0069
2488.00,0.0069
2487.00,0.0068
2486.00,0.0067
2485.00,0.0067
2484.00,0.0066
2483.00,0.0066
2482.00,0.0066
2481.00,0.0066
2480.00,0.0066
2479.00,0.0067
2478.00,0.0068
2477.00,0.0068
2476.00,0.0069
2475.00,0.0068
2474.00,0.0068
2473.00,0.0067
2472.00,0.0067
2471.00,0.0067
2470.00,0.0066
2469.00,0.0066
2468.00,0.0066
2467.00,0.0066
2466.00,0.0066
2465.00,0.0067
2464.00,0.0067
2463.00,0.0067
2462.00,0.0067
2461.00,0.0068
2460.00,0.0068
2459.00,0.0069
2458.00,0.0069
2457.00,0.0069
2456.00,0.0069
2455.00,0.0069
2454.00,0.0069
2453.00,0.0069
2452.00,0.0069
2451.00,0.0069
2450.00,0.0069
2449.00,0.0069
2448.00,0.0069
2447.00,0.0069
2446.00,0.0068
2445.00,0.0068
2444.00,0.0068
2443.00,0.0067
2442.00,0.0067
2441.00,0.0067
2440.00,0.0068
2439.00,0.0068
2438.00,0.0068
2437.00,0.0068
2436.00,0.0067
2435.00,0.0067
2434.00,0.0067
2433.00,0.0067
2432.00,0.0067
2431.00,0.0067
2430.00,0.0067
2429.00,0.0067
2428.00,0.0067
2427.00,0.0067
2426.00,0.0067
2425.00,0.0067
2424.00,0.0067
2423.00,0.0067
2422.00,0.0067
2421.00,0.0067
2420.00,0.0067
2419.00,0.0068
2418.00,0.0067
2417.00,0.0067
2416.00,0.0067
2415.00,0.0067
2414.00,0.0067
2413.00,0.0067
2412.00,0.0067
2411.00,0.0067
2410.00,0.0067
2409.00,0.0067
2408.00,0.0067
2407.00,0.0067
2406.00,0.0067
2405.00,0.0067
2404.00,0.0066
2403.00,0.0066
2402.00,0.0066
2401.00,0.0066
2400.00,0.0066
2399.00,0.0066
2398.00,0.0066
2397.00,0.0066
2396.00,0.0066
2395.00,0.0067
2394.00,0.0067
2393.00,0.0068
2392.00,0.0068
2391.00,0.0068
2390.00,0.0068
2389.00,0.0067
2388.00,0.0067
2387.00,0.0067
2386.00,0.0067
2385.00,0.0067
2384.00,0.0067
2383.00,0.0067
2382.00,0.0067
2381.00,0.0066
2380.00,0.0066
2379.00,0.0065
2378.00,0.0065
2377.00,0.0065
2376.00,0.0066
2375.00,0.0066
2374.00,0.0067
2373.00,0.0067
2372.00,0.0068
2371.00,0.0069
2370.00,0.0069
2369.00,0.0068
2368.00,0.0068
2367.00,0.0068
2366.00,0.0068
2365.00,0.0069
2364.00,0.0070
2363.00,0.0070
2362.00,0.0071
2361.00,0.0071
2360.00,0.0071
2359.00,0.0071
2358.00,0.0071
2357.00,0.0072
2356.00,0.0073
2355.00,0.0073
2354.00,0.0074
2353.00,0.0074
2352.00,0.0073
2351.00,0.0073
2350.00,0.0074
2349.00,0.0076
2348.00,0.0077
2347.00,0.0078
2346.00,0.0078
2345.00,0.0078
2344.00,0.0078
2343.00,0.0079
2342.00,0.0080
2341.00,0.0081
2340.00,0.0082
2339.00,0.0083
2338.00,0.0083
2337.00,0.0083
2336.00,0.0083
2335.00,0.0083
2334.00,0.0083
2333.00,0.0083
2332.00,0.0083
2331.00,0.0083
2330.00,0.0083
2329.00,0.0084
2328.00,0.0087
2327.00,0.0091
2326.00,0.0097
2325.00,0.0102
2324.00,0.0105
2323.00,0.0105
2322.00,0.0103
2321.00,0.0101
2320.00,0.0100
2319.00,0.0099
2318.00,0.0099
2317.00,0.0098
2316.00,0.0097
2315.00,0.0096
2314.00,0.0096
2313.00,0.0095
2312.00,0.0095
2311.00,0.0095
2310.00,0.0094
2309.00,0.0094
2308.00,0.0093
2307.00,0.0093
2306.00,0.0093
2305.00,0.0093
2304.00,0.0094
2303.00,0.0095
2302.00,0.0096
2301.00,0.0096
2300.00,0.0097
2299.00,0.0097
2298.00,0.0097
2297.00,0.0097
2296.00,0.0097
2295.00,0.0097
2294.00,0.0098
2293.00,0.0099
2292.00,0.0100
2291.00,0.0102
2290.00,0.0103
2289.00,0.0104
2288.00,0.0105
2287.00,0.0106
2286.00,0.0107
2285.00,0.0108
2284.00,0.0108
2283.00,0.0106
2282.00,0.0104
2281.00,0.0103
2280.00,0.0102
2279.00,0.0101
2278.00,0.0100
2277.00,0.0100
2276.00,0.0100
2275.00,0.0099
2274.00,0.0099
2273.00,0.0098
2272.00,0.0097
2271.00,0.0097
2270.00,0.0098
2269.00,0.0098
2268.00,0.0098
2267.00,0.0096
2266.00,0.0095
2265.00,0.0095
2264.00,0.0095
2263.00,0.0096
2262.00,0.0097
2261.00,0.0098
2260.00,0.0098
2259.00,0.0097
2258.00,0.0096
2257.00,0.0095
2256.00,0.0094
2255.00,0.0092
2254.00,0.0091
2253.00,0.0090
2252.00,0.0090
2251.00,0.0090
2250.00,0.0090
2249.00,0.0089
2248.00,0.0090
2247.00,0.0091
2246.00,0.0093
2245.00,0.0095
2244.00,0.0096
2243.00,0.0096
2242.00,0.0095
2241.00,0.0094
2240.00,0.0093
2239.00,0.0094
2238.00,0.0096
2237.00,0.0098
2236.00,0.0100
2235.00,0.0100
2234.00,0.0100
2233.00,0.0099
2232.00,0.0098
2231.00,0.0096
2230.00,0.0094
2229.00,0.0092
2228.00,0.0091
2227.00,0.0091
2226.00,0.0092
2225.00,0.0094
2224.00,0.0096
2223.00,0.0098
2222.00,0.0098
2221.00,0.0099
2220.00,0.0098
2219.00,0.0096
2218.00,0.0094
2217.00,0.0093
2216.00,0.0092
2215.00,0.0091
2214.00,0.0091
2213.00,0.0091
2212.00,0.0092
2211.00,0.0093
2210.00,0.0094
2209.00,0.0094
2208.00,0.0094
2207.00,0.0094
2206.00,0.0095
2205.00,0.0095
2204.00,0.0095
2203.00,0.0094
2202.00,0.0094
2201.00,0.0094
2200.00,0.0096
2199.00,0.0097
2198.00,0.0097
2197.00,0.0098
2196.00,0.0098
2195.00,0.0099
2194.00,0.0098
2193.00,0.0099
2192.00,0.0100
2191.00,0.0102
2190.00,0.0103
2189.00,0.0102
2188.00,0.0101
2187.00,0.0099
2186.00,0.0098
2185.00,0.0097
2184.00,0.0097
2183.00,0.0096
2182.00,0.0094
2181.00,0.0093
2180.00,0.0093
2179.00,0.0094
2178.00,0.0094
2177.00,0.0093
2176.00,0.0091
2175.00,0.0089
2174.00,0.0088
2173.00,0.0090
2172.00,0.0092
2171.00,0.0095
2170.00,0.0098
2169.00,0.0102
2168.00,0.0106
2167.00,0.0110
2166.00,0.0112
2165.00,0.0114
2164.00,0.0116
2163.00,0.0118
2162.00,0.0118
2161.00,0.0110
2160.00,0.0094
2159.00,0.0070
2158.00,0.0048
2157.00,0.0037
2156.00,0.0037
2155.00,0.0044
2154.00,0.0051
2153.00,0.0058
2152.00,0.0062
2151.00,0.0065
2150.00,0.0067
2149.00,0.0068
2148.00,0.0069
2147.00,0.0070
2146.00,0.0070
2145.00,0.0071
2144.00,0.0072
2143.00,0.0073
2142.00,0.0074
2141.00,0.0075
2140.00,0.0076
2139.00,0.0077
2138.00,0.0077
2137.00,0.0076
2136.00,0.0075
2135.00,0.0072
2134.00,0.0071
2133.00,0.0072
2132.00,0.0074
2131.00,0.0078
2130.00,0.0080
2129.00,0.0082
2128.00,0.0085
2127.00,0.0088
2126.00,0.0091
2125.00,0.0094
2124.00,0.0096
2123.00,0.0098
2122.00,0.0100
2121.00,0.0103
2120.00,0.0105
2119.00,0.0106
2118.00,0.0106
2117.00,0.0107
2116.00,0.0110
2115.00,0.0113
2114.00,0.0115
2113.00,0.0117
2112.00,0.0117
2111.00,0.0116
2110.00,0.0115
2109.00,0.0114
2108.00,0.0113
2107.00,0.0113
2106.00,0.0113
2105.00,0.0113
2104.00,0.0113
2103.00,0.0112
2102.00,0.0113
2101.00,0.0113
2100.00,0.0113
2099.00,0.0113
2098.00,0.0112
2097.00,0.0111
2096.00,0.0109
2095.00,0.0108
2094.00,0.0107
2093.00,0.0108
2092.00,0.0109
2091.00,0.0111
2090.00,0.0112
2089.00,0.0113
2088.00,0.0112
2087.00,0.0111
2086.00,0.0111
2085.00,0.0111
2084.00,0.0112
2083.00,0.0112
2082.00,0.0113
2081.00,0.0113
2080.00,0.0115
2079.00,0.0116
2078.00,0.0118
2077.00,0.0118
2076.00,0.0116
2075.00,0.0114
2074.00,0.0113
2073.00,0.0112
2072.00,0.0112
2071.00,0.0111
2070.00,0.0111
2069.00,0.0110
2068.00,0.0110
2067.00,0.0110
2066.00,0.0108
2065.00,0.0107
2064.00,0.0107
2063.00,0.0107
2062.00,0.0106
2061.00,0.0106
2060.00,0.0105
2059.00,0.0104
2058.00,0.0103
2057.00,0.0103
2056.00,0.0104
2055.00,0.0106
2054.00,0.0108
2053.00,0.0111
2052.00,0.0115
2051.00,0.0118
2050.00,0.0118
2049.00,0.0115
2048.00,0.0111
2047.00,0.0108
2046.00,0.0105
2045.00,0.0103
2044.00,0.0102
2043.00,0.0102
2042.00,0.0103
2041.00,0.0102
2040.00,0.0101
2039.00,0.0100
2038.00,0.0099
2037.00,0.0099
2036.00,0.0098
2035.00,0.0096
2034.00,0.0092
2033.00,0.0088
2032.00,0.0086
2031.00,0.0085
2030.00,0.0083
2029.00,0.0080
2028.00,0.0079
2027.00,0.0079
2026.00,0.0080
2025.00,0.0082
2024.00,0.0083
2023.00,0.0084
2022.00,0.0084
2021.00,0.0085
2020.00,0.0084
2019.00,0.0082
2018.00,0.0080
2017.00,0.0078
2016.00,0.0077
2015.00,0.0076
2014.00,0.0074
2013.00,0.0073
2012.00,0.0074
2011.00,0.0076
2010.00,0.0077
2009.00,0.0076
2008.00,0.0073
2007.00,0.0068
2006.00,0.0064
2005.00,0.0064
2004.00,0.0066
2003.00,0.0069
2002.00,0.0072
2001.00,0.0075
2000.00,0.0079
1999.00,0.0082
1998.00,0.0084
1997.00,0.0085
1996.00,0.0085
1995.00,0.0085
1994.00,0.0084
1993.00,0.0084
1992.00,0.0084
1991.00,0.0085
1990.00,0.0085
1989.00,0.0086
1988.00,0.0086
1987.00,0.0087
1986.00,0.0089
1985.00,0.0091
1984.00,0.0093
1983.00,0.0094
1982.00,0.0096
1981.00,0.0100
1980.00,0.0103
1979.00,0.0102
1978.00,0.0096
1977.00,0.0086
1976.00,0.0077
1975.00,0.0071
1974.00,0.0068
1973.00,0.0068
1972.00,0.0068
1971.00,0.0066
1970.00,0.0063
1969.00,0.0060
1968.00,0.0061
1967.00,0.0063
1966.00,0.0065
1965.00,0.0066
1964.00,0.0066
1963.00,0.0065
1962.00,0.0063
1961.00,0.0061
1960.00,0.0059
1959.00,0.0059
1958.00,0.0060
1957.00,0.0061
1956.00,0.0063
1955.00,0.0064
1954.00,0.0066
1953.00,0.0068
1952.00,0.0069
1951.00,0.0071
1950.00,0.0072
1949.00,0.0073
1948.00,0.0073
1947.00,0.0073
1946.00,0.0073
1945.00,0.0071
1944.00,0.0070
1943.00,0.0070
1942.00,0.0069
1941.00,0.0067
1940.00,0.0066
1939.00,0.0065
1938.00,0.0065
1937.00,0.0065
1936.00,0.0067
1935.00,0.0068
1934.00,0.0069
1933.00,0.0070
1932.00,0.0071
1931.00,0.0072
1930.00,0.0072
1929.00,0.0072
1928.00,0.0074
1927.00,0.0075
1926.00,0.0076
1925.00,0.0076
1924.00,0.0075
1923.00,0.0073
1922.00,0.0073
1921.00,0.0073
1920.00,0.0076
1919.00,0.0077
1918.00,0.0078
1917.00,0.0077
1916.00,0.0077
1915.00,0.0077
1914.00,0.0077
1913.00,0.0077
1912.00,0.0077
1911.00,0.0077
1910.00,0.0077
1909.00,0.0078
1908.00,0.0078
1907.00,0.0077
1906.00,0.0076
1905.00,0.0076
1904.00,0.0076
1903.00,0.0077
1902.00,0.0076
1901.00,0.0076
1900.00,0.0075
1899.00,0.0074
1898.00,0.0073
1897.00,0.0074
1896.00,0.0074
1895.00,0.0075
1894.00,0.0075
1893.00,0.0074
1892.00,0.0075
1891.00,0.0075
1890.00,0.0075
1889.00,0.0075
1888.00,0.0075
1887.00,0.0076
1886.00,0.0076
1885.00,0.0075
1884.00,0.0075
1883.00,0.0075
1882.00,0.0076
1881.00,0.0076
1880.00,0.0076
1879.00,0.0075
1878.00,0.0074
1877.00,0.0073
1876.00,0.0073
1875.00,0.0074
1874.00,0.0075
1873.00,0.0076
1872.00,0.0077
1871.00,0.0078
1870.00,0.0077
1869.00,0.0076
1868.00,0.0076
1867.00,0.0075
1866.00,0.0075
1865.00,0.0075
1864.00,0.0075
1863.00,0.0075
1862.00,0.0076
1861.00,0.0077
1860.00,0.0078
1859.00,0.0078
1858.00,0.0078
1857.00,0.0078
1856.00,0.0078
1855.00,0.0078
1854.00,0.0077
1853.00,0.0077
1852.00,0.0077
1851.00,0.0077
1850.00,0.0078
1849.00,0.0078
1848.00,0.0079
1847.00,0.0080
1846.00,0.0080
1845.00,0.0080
1844.00,0.0079
1843.00,0.0079
1842.00,0.0078
1841.00,0.0079
1840.00,0.0079
1839.00,0.0079
1838.00,0.0080
1837.00,0.0080
1836.00,0.0080
1835.00,0.0081
1834.00,0.0082
1833.00,0.0083
1832.00,0.0084
1831.00,0.0084
1830.00,0.0083
1829.00,0.0083
1828.00,0.0084
1827.00,0.0085
1826.00,0.0086
1825.00,0.0085
1824.00,0.0085
1823.00,0.0085
1822.00,0.0085
1821.00,0.0085
1820.00,0.0084
1819.00,0.0084
1818.00,0.0083
1817.00,0.0083
1816.00,0.0083
1815.00,0.0084
1814.00,0.0085
1813.00,0.0086
1812.00,0.0087
1811.00,0.0088
1810.00,0.0088
1809.00,0.0089
1808.00,0.0089
1807.00,0.0090
1806.00,0.0091
1805.00,0.0091
1804.00,0.0093
1803.00,0.0093
1802.00,0.0093
1801.00,0.0093
1800.00,0.0094
1799.00,0.0095
1798.00,0.0096
1797.00,0.0097
1796.00,0.0098
1795.00,0.0099
1794.00,0.0100
1793.00,0.0099
1792.00,0.0099
1791.00,0.0099
1790.00,0.0099
1789.00,0.0099
1788.00,0.0100
1787.00,0.0101
1786.00,0.0102
1785.00,0.0102
1784.00,0.0102
1783.00,0.0102
1782.00,0.0103
1781.00,0.0104
1780.00,0.0104
1779.00,0.0105
1778.00,0.0105
1777.00,0.0106
1776.00,0.0107
1775.00,0.0108
1774.00,0.0109
1773.00,0.0109
1772.00,0.0109
1771.00,0.0110
1770.00,0.0111
1769.00,0.0113
1768.00,0.0113
1767.00,0.0114
1766.00,0.0114
1765.00,0.0116
1764.00,0.0117
1763.00,0.0118
1762.00,0.0118
1761.00,0.0119
1760.00,0.0120
1759.00,0.0122
1758.00,0.0123
1757.00,0.0124
1756.00,0.0124
1755.00,0.0126
1754.00,0.0128
1753.00,0.0131
1752.00,0.0133
1751.00,0.0134
1750.00,0.0134
1749.00,0.0135
1748.00,0.0136
1747.00,0.0138
1746.00,0.0139
1745.00,0.0141
1744.00,0.0143
1743.00,0.0145
1742.00,0.0147
1741.00,0.0149
1740.00,0.0150
1739.00,0.0150
1738.00,0.0152
1737.00,0.0155
1736.00,0.0158
1735.00,0.0160
1734.00,0.0160
1733.00,0.0161
1732.00,0.0164
1731.00,0.0166
1730.00,0.0168
1729.00,0.0170
1728.00,0.0172
1727.00,0.0175
1726.00,0.0177
1725.00,0.0179
1724.00,0.0182
1723.00,0.0184
1722.00,0.0187
1721.00,0.0191
1720.00,0.0194
1719.00,0.0197
1718.00,0.0200
1717.00,0.0204
1716.00,0.0209
1715.00,0.0214
1714.00,0.0217
1713.00,0.0220
1712.00,0.0223
1711.00,0.0227
1710.00,0.0231
1709.00,0.0235
1708.00,0.0240
1707.00,0.0245
1706.00,0.0250
1705.00,0.0256
1704.00,0.0263
1703.00,0.0269
1702.00,0.0275
1701.00,0.0281
1700.00,0.0288
1699.00,0.0295
1698.00,0.0301
1697.00,0.0308
1696.00,0.0316
1695.00,0.0325
1694.00,0.0334
1693.00,0.0341
1692.00,0.0349
1691.00,0.0358
1690.00,0.0366
1689.00,0.0376
1688.00,0.0384
1687.00,0.0392
1686.00,0.0400
1685.00,0.0410
1684.00,0.0427
1683.00,0.0444
1682.00,0.0457
1681.00,0.0468
1680.00,0.0478
1679.00,0.0489
1678.00,0.0500
1677.00,0.0511
1676.00,0.0525
1675.00,0.0540
1674.00,0.0554
1673.00,0.0566
1672.00,0.0577
1671.00,0.0590
1670.00,0.0604
1669.00,0.0621
1668.00,0.0637
1667.00,0.0651
1666.00,0.0662
1665.00,0.0673
1664.00,0.0686
1663.00,0.0701
1662.00,0.0717
1661.00,0.0732
1660.00,0.0746
1659.00,0.0758
1658.00,0.0770
1657.00,0.0780
1656.00,0.0788
1655.00,0.0796
1654.00,0.0806
1653.00,0.0827
1652.00,0.0850
1651.00,0.0863
1650.00,0.0870
1649.00,0.0875
1648.00,0.0880
1647.00,0.0891
1646.00,0.0904
1645.00,0.0915
1644.00,0.0923
1643.00,0.0927
1642.00,0.0930
1641.00,0.0933
1640.00,0.0935
1639.00,0.0937
1638.00,0.0938
1637.00,0.0937
1636.00,0.0938
1635.00,0.0941
1634.00,0.0942
1633.00,0.0940
1632.00,0.0936
1631.00,0.0930
1630.00,0.0922
1629.00,0.0914
1628.00,0.0905
1627.00,0.0896
1626.00,0.0887
1625.00,0.0877
1624.00,0.0864
1623.00,0.0850
1622.00,0.0836
1621.00,0.0824
1620.00,0.0812
1619.00,0.0798
1618.00,0.0782
1617.00,0.0763
1616.00,0.0745
1615.00,0.0731
1614.00,0.0718
1613.00,0.0705
1612.00,0.0690
1611.00,0.0674
1610.00,0.0659
1609.00,0.0644
1608.00,0.0629
1607.00,0.0615
1606.00,0.0601
1605.00,0.0588
1604.00,0.0575
1603.00,0.0563
1602.00,0.0551
1601.00,0.0539
1600.00,0.0528
1599.00,0.0517
1598.00,0.0507
1597.00,0.0497
1596.00,0.0487
1595.00,0.0477
1594.00,0.0468
1593.00,0.0460
1592.00,0.0452
1591.00,0.0444
1590.00,0.0437
1589.00,0.0430
1588.00,0.0423
1587.00,0.0416
1586.00,0.0410
1585.00,0.0405
1584.00,0.0399
1583.00,0.0394
1582.00,0.0389
1581.00,0.0384
1580.00,0.0380
1579.00,0.0376
1578.00,0.0372
1577.00,0.0366
1576.00,0.0361
1575.00,0.0357
1574.00,0.0355
1573.00,0.0354
1572.00,0.0352
1571.00,0.0349
1570.00,0.0344
1569.00,0.0340
1568.00,0.0337
1567.00,0.0335
1566.00,0.0333
1565.00,0.0330
1564.00,0.0329
1563.00,0.0328
1562.00,0.0328
1561.00,0.0328
1560.00,0.0323
1559.00,0.0318
1558.00,0.0316
1557.00,0.0316
1556.00,0.0316
1555.00,0.0315
1554.00,0.0313
1553.00,0.0312
1552.00,0.0310
1551.00,0.0309
1550.00,0.0307
1549.00,0.0306
1548.00,0.0305
1547.00,0.0304
1546.00,0.0304
1545.00,0.0303
1544.00,0.0302
1543.00,0.0301
1542.00,0.0299
1541.00,0.0295
1540.00,0.0291
1539.00,0.0287
1538.00,0.0285
1537.00,0.0285
1536.00,0.0285
1535.00,0.0284
1534.00,0.0282
1533.00,0.0279
1532.00,0.0277
1531.00,0.0275
1530.00,0.0274
1529.00,0.0273
1528.00,0.0272
1527.00,0.0270
1526.00,0.0269
1525.00,0.0269
1524.00,0.0268
1523.00,0.0266
1522.00,0.0265
1521.00,0.0263
1520.00,0.0263
1519.00,0.0262
1518.00,0.0261
1517.00,0.0259
1516.00,0.0258
1515.00,0.0257
1514.00,0.0256
1513.00,0.0256
1512.00,0.0256
1511.00,0.0256
1510.00,0.0256
1509.00,0.0256
1508.00,0.0254
1507.00,0.0252
1506.00,0.0249
1505.00,0.0247
1504.00,0.0246
1503.00,0.0246
1502.00,0.0246
1501.00,0.0247
1500.00,0.0247
1499.00,0.0247
1498.00,0.0247
1497.00,0.0246
1496.00,0.0246
1495.00,0.0246
1494.00,0.0247
1493.00,0.0249
1492.00,0.0251
1491.00,0.0252
1490.00,0.0252
1489.00,0.0253
1488.00,0.0255
1487.00,0.0256
1486.00,0.0258
1485.00,0.0260
1484.00,0.0262
1483.00,0.0264
1482.00,0.0266
1481.00,0.0269
1480.00,0.0273
1479.00,0.0276
1478.00,0.0280
1477.00,0.0283
1476.00,0.0286
1475.00,0.0288
1474.00,0.0291
1473.00,0.0292
1472.00,0.0294
1471.00,0.0296
1470.00,0.0297
1469.00,0.0298
1468.00,0.0299
1467.00,0.0300
1466.00,0.0301
1465.00,0.0302
1464.00,0.0303
1463.00,0.0305
1462.00,0.0306
1461.00,0.0308
1460.00,0.0310
1459.00,0.0312
1458.00,0.0313
1457.00,0.0316
1456.00,0.0318
1455.00,0.0319
1454.00,0.0320
1453.00,0.0320
1452.00,0.0320
1451.00,0.0320
1450.00,0.0320
1449.00,0.0320
1448.00,0.0320
1447.00,0.0320
1446.00,0.0321
1445.00,0.0322
1444.00,0.0323
1443.00,0.0324
1442.00,0.0326
1441.00,0.0327
1440.00,0.0329
1439.00,0.0332
1438.00,0.0334
1437.00,0.0336
1436.00,0.0337
1435.00,0.0338
1434.00,0.0339
1433.00,0.0340
1432.00,0.0341
1431.00,0.0342
1430.00,0.0343
1429.00,0.0344
1428.00,0.0345
1427.00,0.0346
1426.00,0.0346
1425.00,0.0347
1424.00,0.0348
1423.00,0.0348
1422.00,0.0349
1421.00,0.0350
1420.00,0.0350
1419.00,0.0351
1418.00,0.0351
1417.00,0.0352
1416.00,0.0351
1415.00,0.0351
1414.00,0.0351
1413.00,0.0351
1412.00,0.0352
1411.00,0.0352
1410.00,0.0352
1409.00,0.0353
1408.00,0.0353
1407.00,0.0353
1406.00,0.0353
1405.00,0.0354
1404.00,0.0354
1403.00,0.0353
1402.00,0.0353
1401.00,0.0353
1400.00,0.0352
1399.00,0.0351
1398.00,0.0350
1397.00,0.0350
1396.00,0.0349
1395.00,0.0349
1394.00,0.0349
1393.00,0.0349
1392.00,0.0350
1391.00,0.0352
1390.00,0.0354
1389.00,0.0359
1388.00,0.0364
1387.00,0.0370
1386.00,0.0376
1385.00,0.0382
1384.00,0.0388
1383.00,0.0394
1382.00,0.0400
1381.00,0.0406
1380.00,0.0411
1379.00,0.0415
1378.00,0.0418
1377.00,0.0420
1376.00,0.0421
1375.00,0.0422
1374.00,0.0422
1373.00,0.0422
1372.00,0.0421
1371.00,0.0420
1370.00,0.0419
1369.00,0.0416
1368.00,0.0414
1367.00,0.0412
1366.00,0.0410
1365.00,0.0408
1364.00,0.0406
1363.00,0.0405
1362.00,0.0404
1361.00,0.0404
1360.00,0.0404
1359.00,0.0403
1358.00,0.0403
1357.00,0.0403
1356.00,0.0402
1355.00,0.0402
1354.00,0.0401
1353.00,0.0400
1352.00,0.0398
1351.00,0.0395
1350.00,0.0392
1349.00,0.0388
1348.00,0.0384
1347.00,0.0380
1346.00,0.0377
1345.00,0.0374
1344.00,0.0371
1343.00,0.0368
1342.00,0.0367
1341.00,0.0366
1340.00,0.0364
1339.00,0.0363
1338.00,0.0363
1337.00,0.0362
1336.00,0.0361
1335.00,0.0360
1334.00,0.0359
1333.00,0.0358
1332.00,0.0358
1331.00,0.0357
1330.00,0.0357
1329.00,0.0358
1328.00,0.0358
1327.00,0.0359
1326.00,0.0360
1325.00,0.0361
1324.00,0.0362
1323.00,0.0363
1322.00,0.0364
1321.00,0.0365
1320.00,0.0366
1319.00,0.0367
1318.00,0.0369
1317.00,0.0370
1316.00,0.0371
1315.00,0.0372
1314.00,0.0373
1313.00,0.0375
1312.00,0.0376
1311.00,0.0378
1310.00,0.0379
1309.00,0.0380
1308.00,0.0382
1307.00,0.0385
1306.00,0.0388
1305.00,0.0391
1304.00,0.0394
1303.00,0.0398
1302.00,0.0402
1301.00,0.0407
1300.00,0.0412
1299.00,0.0418
1298.00,0.0424
1297.00,0.0432
1296.00,0.0441
1295.00,0.0450
1294.00,0.0460
1293.00,0.0470
1292.00,0.0482
1291.00,0.0494
1290.00,0.0506
1289.00,0.0520
1288.00,0.0533
1287.00,0.0548
1286.00,0.0563
1285.00,0.0579
1284.00,0.0596
1283.00,0.0613
1282.00,0.0631
1281.00,0.0651
1280.00,0.0670
1279.00,0.0691
1278.00,0.0711
1277.00,0.0732
1276.00,0.0753
1275.00,0.0775
1274.00,0.0797
1273.00,0.0820
1272.00,0.0843
1271.00,0.0866
1270.00,0.0888
1269.00,0.0910
1268.00,0.0929
1267.00,0.0948
1266.00,0.0966
1265.00,0.0983
1264.00,0.0999
1263.00,0.1013
1262.00,0.1027
1261.00,0.1040
1260.00,0.1052
1259.00,0.1063
1258.00,0.1073
1257.00,0.1082
1256.00,0.1090
1255.00,0.1097
1254.00,0.1103
1253.00,0.1108
1252.00,0.1113
1251.00,0.1118
1250.00,0.1121
1249.00,0.1125
1248.00,0.1128
1247.00,0.1131
1246.00,0.1134
1245.00,0.1137
1244.00,0.1141
1243.00,0.1146
1242.00,0.1151
1241.00,0.1157
1240.00,0.1163
1239.00,0.1170
1238.00,0.1177
1237.00,0.1185
1236.00,0.1192
1235.00,0.1198
1234.00,0.1203
1233.00,0.1209
1232.00,0.1214
1231.00,0.1218
1230.00,0.1221
1229.00,0.1224
1228.00,0.1225
1227.00,0.1225
1226.00,0.1223
1225.00,0.1221
1224.00,0.1218
1223.00,0.1213
1222.00,0.1208
1221.00,0.1201
1220.00,0.1193
1219.00,0.1184
1218.00,0.1173
1217.00,0.1161
1216.00,0.1148
1215.00,0.1133
1214.00,0.1118
1213.00,0.1102
1212.00,0.1085
1211.00,0.1067
1210.00,0.1048
1209.00,0.1028
1208.00,0.1008
1207.00,0.0988
1206.00,0.0968
1205.00,0.0948
1204.00,0.0929
1203.00,0.0910
1202.00,0.0893
1201.00,0.0877
1200.00,0.0864
1199.00,0.0853
1198.00,0.0844
1197.00,0.0839
1196.00,0.0836
1195.00,0.0834
1194.00,0.0833
1193.00,0.0832
1192.00,0.0829
1191.00,0.0825
1190.00,0.0819
1189.00,0.0811
1188.00,0.0801
1187.00,0.0791
1186.00,0.0781
1185.00,0.0773
1184.00,0.0765
1183.00,0.0760
1182.00,0.0756
1181.00,0.0755
1180.00,0.0756
1179.00,0.0758
1178.00,0.0762
1177.00,0.0768
1176.00,0.0774
1175.00,0.0782
1174.00,0.0792
1173.00,0.0804
1172.00,0.0818
1171.00,0.0833
1170.00,0.0849
1169.00,0.0868
1168.00,0.0887
1167.00,0.0908
1166.00,0.0930
1165.00,0.0951
1164.00,0.0971
1163.00,0.0989
1162.00,0.1005
1161.00,0.1017
1160.00,0.1027
1159.00,0.1034
1158.00,0.1038
1157.00,0.1039
1156.00,0.1037
1155.00,0.1033
1154.00,0.1026
1153.00,0.1018
1152.00,0.1007
1151.00,0.0994
1150.00,0.0980
1149.00,0.0966
1148.00,0.0952
1147.00,0.0937
1146.00,0.0923
1145.00,0.0909
1144.00,0.0897
1143.00,0.0887
1142.00,0.0879
1141.00,0.0874
1140.00,0.0873
1139.00,0.0875
1138.00,0.0882
1137.00,0.0893
1136.00,0.0909
1135.00,0.0928
1134.00,0.0952
1133.00,0.0978
1132.00,0.1006
1131.00,0.1032
1130.00,0.1055
1129.00,0.1075
1128.00,0.1091
1127.00,0.1102
1126.00,0.1107
1125.00,0.1108
1124.00,0.1104
1123.00,0.1098
1122.00,0.1090
1121.00,0.1081
1120.00,0.1073
1119.00,0.1067
1118.00,0.1061
1117.00,0.1055
1116.00,0.1050
1115.00,0.1044
1114.00,0.1039
1113.00,0.1034
1112.00,0.1030
1111.00,0.1026
1110.00,0.1023
1109.00,0.1021
1108.00,0.1020
1107.00,0.1021
1106.00,0.1024
1105.00,0.1031
1104.00,0.1041
1103.00,0.1053
1102.00,0.1068
1101.00,0.1085
1100.00,0.1104
1099.00,0.1124
1098.00,0.1144
1097.00,0.1164
1096.00,0.1183
1095.00,0.1199
1094.00,0.1214
1093.00,0.1226
1092.00,0.1238
1091.00,0.1249
1090.00,0.1261
1089.00,0.1276
1088.00,0.1292
1087.00,0.1310
1086.00,0.1328
1085.00,0.1349
1084.00,0.1371
1083.00,0.1396
1082.00,0.1423
1081.00,0.1452
1080.00,0.1483
1079.00,0.1517
1078.00,0.1552
1077.00,0.1589
1076.00,0.1625
1075.00,0.1662
1074.00,0.1697
1073.00,0.1731
1072.00,0.1764
1071.00,0.1795
1070.00,0.1823
1069.00,0.1847
1068.00,0.1864
1067.00,0.1873
1066.00,0.1873
1065.00,0.1863
1064.00,0.1844
1063.00,0.1818
1062.00,0.1788
1061.00,0.1756
1060.00,0.1728
1059.00,0.1704
1058.00,0.1686
1057.00,0.1674
1056.00,0.1667
1055.00,0.1664
1054.00,0.1664
1053.00,0.1668
1052.00,0.1673
1051.00,0.1682
1050.00,0.1693
1049.00,0.1707
1048.00,0.1724
1047.00,0.1744
1046.00,0.1768
1045.00,0.1795
1044.00,0.1821
1043.00,0.1842
1042.00,0.1857
1041.00,0.1864
1040.00,0.1864
1039.00,0.1859
1038.00,0.1850
1037.00,0.1840
1036.00,0.1830
1035.00,0.1822
1034.00,0.1818
1033.00,0.1818
1032.00,0.1821
1031.00,0.1824
1030.00,0.1826
1029.00,0.1824
1028.00,0.1815
1027.00,0.1798
1026.00,0.1773
1025.00,0.1740
1024.00,0.1701
1023.00,0.1657
1022.00,0.1609
1021.00,0.1560
1020.00,0.1511
1019.00,0.1463
1018.00,0.1418
1017.00,0.1377
1016.00,0.1341
1015.00,0.1309
1014.00,0.1283
1013.00,0.1262
1012.00,0.1246
1011.00,0.1235
1010.00,0.1229
1009.00,0.1228
1008.00,0.1230
1007.00,0.1233
1006.00,0.1236
1005.00,0.1237
1004.00,0.1233
1003.00,0.1223
1002.00,0.1204
1001.00,0.1179
1000.00,0.1147
999.00,0.1112
998.00,0.1077
997.00,0.1044
996.00,0.1016
995.00,0.0994
994.00,0.0978
993.00,0.0965
992.00,0.0956
991.00,0.0948
990.00,0.0941
989.00,0.0933
988.00,0.0924
987.00,0.0913
986.00,0.0900
985.00,0.0886
984.00,0.0872
983.00,0.0860
982.00,0.0850
981.00,0.0843
980.00,0.0839
979.00,0.0838
978.00,0.0840
977.00,0.0843
976.00,0.0849
975.00,0.0857
974.00,0.0867
973.00,0.0878
972.00,0.0888
971.00,0.0896
970.00,0.0899
969.00,0.0895
968.00,0.0883
967.00,0.0862
966.00,0.0836
965.00,0.0806
964.00,0.0776
963.00,0.0748
962.00,0.0724
961.00,0.0704
960.00,0.0687
959.00,0.0675
958.00,0.0668
957.00,0.0663
956.00,0.0662
955.00,0.0664
954.00,0.0668
953.00,0.0674
952.00,0.0682
951.00,0.0692
950.00,0.0703
949.00,0.0715
948.00,0.0728
947.00,0.0742
946.00,0.0758
945.00,0.0777
944.00,0.0798
943.00,0.0821
942.00,0.0849
941.00,0.0882
940.00,0.0920
939.00,0.0964
938.00,0.1011
937.00,0.1061
936.00,0.1111
935.00,0.1160
934.00,0.1206
933.00,0.1247
932.00,0.1283
931.00,0.1314
930.00,0.1341
929.00,0.1365
928.00,0.1384
927.00,0.1400
926.00,0.1411
925.00,0.1419
924.00,0.1423
923.00,0.1423
922.00,0.1422
921.00,0.1419
920.00,0.1414
919.00,0.1408
918.00,0.1399
917.00,0.1389
916.00,0.1375
915.00,0.1360
914.00,0.1342
913.00,0.1323
912.00,0.1303
911.00,0.1282
910.00,0.1259
909.00,0.1236
908.00,0.1214
907.00,0.1193
906.00,0.1175
905.00,0.1160
904.00,0.1148
903.00,0.1137
902.00,0.1127
901.00,0.1118
900.00,0.1111
899.00,0.1104
898.00,0.1098
897.00,0.1094
896.00,0.1090
895.00,0.1088
894.00,0.1087
893.00,0.1086
892.00,0.1085
891.00,0.1083
890.00,0.1080
889.00,0.1074
888.00,0.1065
887.00,0.1052
886.00,0.1035
885.00,0.1014
884.00,0.0991
883.00,0.0966
882.00,0.0942
881.00,0.0920
880.00,0.0903
879.00,0.0892
878.00,0.0888
877.00,0.0888
876.00,0.0892
875.00,0.0898
874.00,0.0902
873.00,0.0905
872.00,0.0904
871.00,0.0900
870.00,0.0895
869.00,0.0890
868.00,0.0885
867.00,0.0882
866.00,0.0882
865.00,0.0885
864.00,0.0892
863.00,0.0901
862.00,0.0913
861.00,0.0929
860.00,0.0947
859.00,0.0969
858.00,0.0994
857.00,0.1021
856.00,0.1050
855.00,0.1081
854.00,0.1114
853.00,0.1148
852.00,0.1182
851.00,0.1215
850.00,0.1246
849.00,0.1273
848.00,0.1295
847.00,0.1311
846.00,0.1318
845.00,0.1318
844.00,0.1310
843.00,0.1295
842.00,0.1273
841.00,0.1246
840.00,0.1215
839.00,0.1181
838.00,0.1147
837.00,0.1115
836.00,0.1085
835.00,0.1059
834.00,0.1035
833.00,0.1015
832.00,0.0997
831.00,0.0980
830.00,0.0967
829.00,0.0956
828.00,0.0947
827.00,0.0939
826.00,0.0933
825.00,0.0929
824.00,0.0927
823.00,0.0925
822.00,0.0924
821.00,0.0924
820.00,0.0923
819.00,0.0923
818.00,0.0925
817.00,0.0929
816.00,0.0933
815.00,0.0938
814.00,0.0945
813.00,0.0952
812.00,0.0959
811.00,0.0968
810.00,0.0979
809.00,0.0990
808.00,0.1002
807.00,0.1013
806.00,0.1024
805.00,0.1035
804.00,0.1045
803.00,0.1054
802.00,0.1061
801.00,0.1066
800.00,0.1070
799.00,0.1071
798.00,0.1071
797.00,0.1070
796.00,0.1066
795.00,0.1061
794.00,0.1057
793.00,0.1053
792.00,0.1048
791.00,0.1044
790.00,0.1041
789.00,0.1040
788.00,0.1039
787.00,0.1040
786.00,0.1043
785.00,0.1046
784.00,0.1050
783.00,0.1056
782.00,0.1063
781.00,0.1072
780.00,0.1080
779.00,0.1090
778.00,0.1102
777.00,0.1114
776.00,0.1126
775.00,0.1135
774.00,0.1142
773.00,0.1147
772.00,0.1149
771.00,0.1149
770.00,0.1145
769.00,0.1140
768.00,0.1135
767.00,0.1131
766.00,0.1129
765.00,0.1129
764.00,0.1130
763.00,0.1131
762.00,0.1134
761.00,0.1137
760.00,0.1142
759.00,0.1147
758.00,0.1153
757.00,0.1161
756.00,0.1169
755.00,0.1180
754.00,0.1193
753.00,0.1208
752.00,0.1225
751.00,0.1245
750.00,0.1267
749.00,0.1290
748.00,0.1314
747.00,0.1337
746.00,0.1360
745.00,0.1380
744.00,0.1399
743.00,0.1415
742.00,0.1429
741.00,0.1442
740.00,0.1455
739.00,0.1467
738.00,0.1479
737.00,0.1491
736.00,0.1500
735.00,0.1507
734.00,0.1513
733.00,0.1518
732.00,0.1523
731.00,0.1528
730.00,0.1535
729.00,0.1542
728.00,0.1550
727.00,0.1560
726.00,0.1570
725.00,0.1579
724.00,0.1584
723.00,0.1586
722.00,0.1585
721.00,0.1584
720.00,0.1582
719.00,0.1579
718.00,0.1577
717.00,0.1575
716.00,0.1576
715.00,0.1581
714.00,0.1590
713.00,0.1602
712.00,0.1617
711.00,0.1633
710.00,0.1652
709.00,0.1672
708.00,0.1692
707.00,0.1713
706.00,0.1734
705.00,0.1751
704.00,0.1764
703.00,0.1774
702.00,0.1780
701.00,0.1784
700.00,0.1783
699.00,0.1777
698.00,0.1769
697.00,0.1760
696.00,0.1749
695.00,0.1738
694.00,0.1726
693.00,0.1712
692.00,0.1698
691.00,0.1685
690.00,0.1674
689.00,0.1665
688.00,0.1657
687.00,0.1650
686.00,0.1644
685.00,0.1640
684.00,0.1637
683.00,0.1635
682.00,0.1632
681.00,0.1630
680.00,0.1628
679.00,0.1629
678.00,0.1632
677.00,0.1636
676.00,0.1642
675.00,0.1648
674.00,0.1656
673.00,0.1664
672.00,0.1668
671.00,0.1669
670.00,0.1670
669.00,0.1675
668.00,0.1688
667.00,0.1703
666.00,0.1711
665.00,0.1712
664.00,0.1711
663.00,0.1709
662.00,0.1708
661.00,0.1708
660.00,0.1709
659.00,0.1712
658.00,0.1715
657.00,0.1718
656.00,0.1719
655.00,0.1720
654.00,0.1723
653.00,0.1726
652.00,0.1728
651.00,0.1731
650.00,0.1733
649.00,0.1736
648.00,0.1739
647.00,0.1743
646.00,0.1747
645.00,0.1751
644.00,0.1756
643.00,0.1760
642.00,0.1765
641.00,0.1771
640.00,0.1777
639.00,0.1782
638.00,0.1788
637.00,0.1796
636.00,0.1806
635.00,0.1818
634.00,0.1828
633.00,0.1837
632.00,0.1846
631.00,0.1855
630.00,0.1867
629.00,0.1882
628.00,0.1900
627.00,0.1918
626.00,0.1938
625.00,0.1958
624.00,0.1978
623.00,0.1996
622.00,0.2012
621.00,0.2026
620.00,0.2038
619.00,0.2049
618.00,0.2062
617.00,0.2075
616.00,0.2089
615.00,0.2104
614.00,0.2117
613.00,0.2130
612.00,0.2143
611.00,0.2155
610.00,0.2168
609.00,0.2181
608.00,0.2192
607.00,0.2201
606.00,0.2207
605.00,0.2211
604.00,0.2215
603.00,0.2218
602.00,0.2220
601.00,0.2221
600.00,0.2223
599.00,0.2225
598.00,0.2229
597.00,0.2234
596.00,0.2241
595.00,0.2247
594.00,0.2254
593.00,0.2260
592.00,0.2268
591.00,0.2277
590.00,0.2286
589.00,0.2297
588.00,0.2310
587.00,0.2326
586.00,0.2344
585.00,0.2362
584.00,0.2381
583.00,0.2400
582.00,0.2418
581.00,0.2434
580.00,0.2448
579.00,0.2459
578.00,0.2470
577.00,0.2481
576.00,0.2494
575.00,0.2507
574.00,0.2516
573.00,0.2523
572.00,0.2527
571.00,0.2530
570.00,0.2533
569.00,0.2538
568.00,0.2544
567.00,0.2550
566.00,0.2555
565.00,0.2559
564.00,0.2561
563.00,0.2563
562.00,0.2565
561.00,0.2567
560.00,0.2570
559.00,0.2573
558.00,0.2574
557.00,0.2576
556.00,0.2579
555.00,0.2581
554.00,0.2582
553.00,0.2586
552.00,0.2591
551.00,0.2598
550.00,0.2602
549.00,0.2607
548.00,0.2613
547.00,0.2621
546.00,0.2628
545.00,0.2633
544.00,0.2636
543.00,0.2640
542.00,0.2646
541.00,0.2655
540.00,0.2665
539.00,0.2671
538.00,0.2671
537.00,0.2665
536.00,0.2658
535.00,0.2652
534.00,0.2647
533.00,0.2642
532.00,0.2635
531.00,0.2629
530.00,0.2625
529.00,0.2623
528.00,0.2622
527.00,0.2623
526.00,0.2624
525.00,0.2626
524.00,0.2628
523.00,0.2629
522.00,0.2630
521.00,0.2633
520.00,0.2638
519.00,0.2646
518.00,0.2654
517.00,0.2662
516.00,0.2667
515.00,0.2670
514.00,0.2671
513.00,0.2669
512.00,0.2666
511.00,0.2664
510.00,0.2662
509.00,0.2662
508.00,0.2662
507.00,0.2663
506.00,0.2664
505.00,0.2665
504.00,0.2666
503.00,0.2670
502.00,0.2676
501.00,0.2678
500.00,0.2678
499.00,0.2677
498.00,0.2679
497.00,0.2685
496.00,0.2691
495.00,0.2696
494.00,0.2701
493.00,0.2705
492.00,0.2706
491.00,0.2705
490.00,0.2703
489.00,0.2705
488.00,0.2708
487.00,0.2713
486.00,0.2716
485.00,0.2717
484.00,0.2715
483.00,0.2713
482.00,0.2714
481.00,0.2719
480.00,0.2729
479.00,0.2738
478.00,0.2743
477.00,0.2744
476.00,0.2744
475.00,0.2746
474.00,0.2748
473.00,0.2751
472.00,0.2752
471.00,0.2753
470.00,0.2751
469.00,0.2749
468.00,0.2750
467.00,0.2756
466.00,0.2763
465.00,0.2770
464.00,0.2775
463.00,0.2782
462.00,0.2789
461.00,0.2792
460.00,0.2791
459.00,0.2789
458.00,0.2791
457.00,0.2797
456.00,0.2804
455.00,0.2805
454.00,0.2806
453.00,0.2809
452.00,0.2810
451.00,0.2808
450.00,0.2808
