Created as New Dataset,Sample 004 By Administrator Date Thursday, May 29 2025
cm-1,A
4000.00,0.0059
3999.00,0.0059
3998.00,0.0059
3997.00,0.0060
3996.00,0.0060
3995.00,0.0060
3994.00,0.0059
3993.00,0.0059
3992.00,0.0060
3991.00,0.0060
3990.00,0.0060
3989.00,0.0060
3988.00,0.0061
3987.00,0.0061
3986.00,0.0061
3985.00,0.0061
3984.00,0.0061
3983.00,0.0060
3982.00,0.0060
3981.00,0.0060
3980.00,0.0060
3979.00,0.0061
3978.00,0.0061
3977.00,0.0061
3976.00,0.0061
3975.00,0.0060
3974.00,0.0060
3973.00,0.0060
3972.00,0.0060
3971.00,0.0061
3970.00,0.0061
3969.00,0.0061
3968.00,0.0061
3967.00,0.0060
3966.00,0.0061
3965.00,0.0061
3964.00,0.0061
3963.00,0.0061
3962.00,0.0061
3961.00,0.0061
3960.00,0.0061
3959.00,0.0061
3958.00,0.0061
3957.00,0.0061
3956.00,0.0061
3955.00,0.0061
3954.00,0.0061
3953.00,0.0062
3952.00,0.0062
3951.00,0.0062
3950.00,0.0063
3949.00,0.0063
3948.00,0.0063
3947.00,0.0063
3946.00,0.0063
3945.00,0.0063
3944.00,0.0063
3943.00,0.0062
3942.00,0.0061
3941.00,0.0061
3940.00,0.0061
3939.00,0.0061
3938.00,0.0061
3937.00,0.0061
3936.00,0.0061
3935.00,0.0062
3934.00,0.0063
3933.00,0.0063
3932.00,0.0063
3931.00,0.0063
3930.00,0.0063
3929.00,0.0063
3928.00,0.0063
3927.00,0.0064
3926.00,0.0064
3925.00,0.0064
3924.00,0.0063
3923.00,0.0063
3922.00,0.0064
3921.00,0.0064
3920.00,0.0065
3919.00,0.0065
3918.00,0.0065
3917.00,0.0065
3916.00,0.0064
3915.00,0.0063
3914.00,0.0063
3913.00,0.0062
3912.00,0.0062
3911.00,0.0062
3910.00,0.0061
3909.00,0.0061
3908.00,0.0061
3907.00,0.0062
3906.00,0.0064
3905.00,0.0065
3904.00,0.0067
3903.00,0.0068
3902.00,0.0069
3901.00,0.0069
3900.00,0.0068
3899.00,0.0067
3898.00,0.0066
3897.00,0.0065
3896.00,0.0065
3895.00,0.0065
3894.00,0.0065
3893.00,0.0064
3892.00,0.0064
3891.00,0.0063
3890.00,0.0063
3889.00,0.0064
3888.00,0.0066
3887.00,0.0067
3886.00,0.0067
3885.00,0.0067
3884.00,0.0067
3883.00,0.0067
3882.00,0.0068
3881.00,0.0068
3880.00,0.0067
3879.00,0.0066
3878.00,0.0066
3877.00,0.0066
3876.00,0.0067
3875.00,0.0066
3874.00,0.0066
3873.00,0.0066
3872.00,0.0067
3871.00,0.0068
3870.00,0.0068
3869.00,0.0067
3868.00,0.0067
3867.00,0.0068
3866.00,0.0069
3865.00,0.0069
3864.00,0.0067
3863.00,0.0066
3862.00,0.0066
3861.00,0.0066
3860.00,0.0066
3859.00,0.0066
3858.00,0.0064
3857.00,0.0063
3856.00,0.0062
3855.00,0.0063
3854.00,0.0064
3853.00,0.0065
3852.00,0.0065
3851.00,0.0065
3850.00,0.0066
3849.00,0.0067
3848.00,0.0067
3847.00,0.0067
3846.00,0.0068
3845.00,0.0068
3844.00,0.0068
3843.00,0.0069
3842.00,0.0069
3841.00,0.0069
3840.00,0.0069
3839.00,0.0068
3838.00,0.0068
3837.00,0.0068
3836.00,0.0068
3835.00,0.0068
3834.00,0.0068
3833.00,0.0068
3832.00,0.0068
3831.00,0.0067
3830.00,0.0067
3829.00,0.0067
3828.00,0.0067
3827.00,0.0067
3826.00,0.0067
3825.00,0.0066
3824.00,0.0067
3823.00,0.0069
3822.00,0.0069
3821.00,0.0069
3820.00,0.0068
3819.00,0.0068
3818.00,0.0069
3817.00,0.0069
3816.00,0.0068
3815.00,0.0067
3814.00,0.0066
3813.00,0.0066
3812.00,0.0066
3811.00,0.0066
3810.00,0.0066
3809.00,0.0066
3808.00,0.0067
3807.00,0.0067
3806.00,0.0067
3805.00,0.0067
3804.00,0.0069
3803.00,0.0070
3802.00,0.0070
3801.00,0.0068
3800.00,0.0068
3799.00,0.0069
3798.00,0.0070
3797.00,0.0070
3796.00,0.0069
3795.00,0.0068
3794.00,0.0068
3793.00,0.0067
3792.00,0.0067
3791.00,0.0067
3790.00,0.0067
3789.00,0.0067
3788.00,0.0067
3787.00,0.0067
3786.00,0.0067
3785.00,0.0068
3784.00,0.0068
3783.00,0.0068
3782.00,0.0069
3781.00,0.0070
3780.00,0.0070
3779.00,0.0070
3778.00,0.0070
3777.00,0.0069
3776.00,0.0069
3775.00,0.0069
3774.00,0.0069
3773.00,0.0069
3772.00,0.0070
3771.00,0.0071
3770.00,0.0071
3769.00,0.0071
3768.00,0.0072
3767.00,0.0072
3766.00,0.0073
3765.00,0.0073
3764.00,0.0073
3763.00,0.0073
3762.00,0.0074
3761.00,0.0076
3760.00,0.0076
3759.00,0.0076
3758.00,0.0076
3757.00,0.0076
3756.00,0.0076
3755.00,0.0077
3754.00,0.0078
3753.00,0.0078
3752.00,0.0079
3751.00,0.0080
3750.00,0.0081
3749.00,0.0081
3748.00,0.0081
3747.00,0.0081
3746.00,0.0082
3745.00,0.0082
3744.00,0.0081
3743.00,0.0080
3742.00,0.0080
3741.00,0.0082
3740.00,0.0083
3739.00,0.0084
3738.00,0.0086
3737.00,0.0087
3736.00,0.0087
3735.00,0.0086
3734.00,0.0086
3733.00,0.0086
3732.00,0.0086
3731.00,0.0085
3730.00,0.0084
3729.00,0.0085
3728.00,0.0085
3727.00,0.0086
3726.00,0.0086
3725.00,0.0086
3724.00,0.0086
3723.00,0.0086
3722.00,0.0085
3721.00,0.0085
3720.00,0.0085
3719.00,0.0085
3718.00,0.0085
3717.00,0.0085
3716.00,0.0086
3715.00,0.0087
3714.00,0.0088
3713.00,0.0089
3712.00,0.0090
3711.00,0.0090
3710.00,0.0091
3709.00,0.0092
3708.00,0.0092
3707.00,0.0092
3706.00,0.0092
3705.00,0.0092
3704.00,0.0092
3703.00,0.0093
3702.00,0.0093
3701.00,0.0093
3700.00,0.0094
3699.00,0.0096
3698.00,0.0097
3697.00,0.0098
3696.00,0.0099
3695.00,0.0100
3694.00,0.0102
3693.00,0.0104
3692.00,0.0105
3691.00,0.0106
3690.00,0.0108
3689.00,0.0110
3688.00,0.0112
3687.00,0.0113
3686.00,0.0115
3685.00,0.0117
3684.00,0.0118
3683.00,0.0120
3682.00,0.0123
3681.00,0.0125
3680.00,0.0127
3679.00,0.0128
3678.00,0.0130
3677.00,0.0134
3676.00,0.0137
3675.00,0.0140
3674.00,0.0143
3673.00,0.0147
3672.00,0.0152
3671.00,0.0155
3670.00,0.0157
3669.00,0.0158
3668.00,0.0161
3667.00,0.0164
3666.00,0.0167
3665.00,0.0170
3664.00,0.0172
3663.00,0.0175
3662.00,0.0179
3661.00,0.0182
3660.00,0.0186
3659.00,0.0190
3658.00,0.0194
3657.00,0.0199
3656.00,0.0204
3655.00,0.0209
3654.00,0.0214
3653.00,0.0220
3652.00,0.0226
3651.00,0.0232
3650.00,0.0237
3649.00,0.0243
3648.00,0.0250
3647.00,0.0255
3646.00,0.0260
3645.00,0.0264
3644.00,0.0268
3643.00,0.0272
3642.00,0.0276
3641.00,0.0280
3640.00,0.0285
3639.00,0.0290
3638.00,0.0296
3637.00,0.0302
3636.00,0.0308
3635.00,0.0314
3634.00,0.0319
3633.00,0.0324
3632.00,0.0330
3631.00,0.0337
3630.00,0.0345
3629.00,0.0352
3628.00,0.0359
3627.00,0.0365
3626.00,0.0372
3625.00,0.0378
3624.00,0.0384
3623.00,0.0389
3622.00,0.0394
3621.00,0.0400
3620.00,0.0406
3619.00,0.0412
3618.00,0.0420
3617.00,0.0428
3616.00,0.0435
3615.00,0.0442
3614.00,0.0448
3613.00,0.0454
3612.00,0.0460
3611.00,0.0466
3610.00,0.0473
3609.00,0.0479
3608.00,0.0484
3607.00,0.0489
3606.00,0.0494
3605.00,0.0500
3604.00,0.0506
3603.00,0.0511
3602.00,0.0517
3601.00,0.0523
3600.00,0.0528
3599.00,0.0534
3598.00,0.0540
3597.00,0.0546
3596.00,0.0552
3595.00,0.0558
3594.00,0.0564
3593.00,0.0570
3592.00,0.0576
3591.00,0.0582
3590.00,0.0589
3589.00,0.0595
3588.00,0.0601
3587.00,0.0607
3586.00,0.0613
3585.00,0.0619
3584.00,0.0625
3583.00,0.0630
3582.00,0.0635
3581.00,0.0640
3580.00,0.0645
3579.00,0.0650
3578.00,0.0655
3577.00,0.0661
3576.00,0.0666
3575.00,0.0672
3574.00,0.0677
3573.00,0.0683
3572.00,0.0689
3571.00,0.0695
3570.00,0.0701
3569.00,0.0708
3568.00,0.0713
3567.00,0.0719
3566.00,0.0725
3565.00,0.0731
3564.00,0.0737
3563.00,0.0742
3562.00,0.0747
3561.00,0.0751
3560.00,0.0755
3559.00,0.0759
3558.00,0.0764
3557.00,0.0770
3556.00,0.0776
3555.00,0.0782
3554.00,0.0788
3553.00,0.0793
3552.00,0.0798
3551.00,0.0803
3550.00,0.0809
3549.00,0.0814
3548.00,0.0820
3547.00,0.0826
3546.00,0.0831
3545.00,0.0836
3544.00,0.0840
3543.00,0.0845
3542.00,0.0850
3541.00,0.0855
3540.00,0.0860
3539.00,0.0865
3538.00,0.0870
3537.00,0.0874
3536.00,0.0879
3535.00,0.0883
3534.00,0.0889
3533.00,0.0894
3532.00,0.0900
3531.00,0.0905
3530.00,0.0910
3529.00,0.0915
3528.00,0.0920
3527.00,0.0926
3526.00,0.0931
3525.00,0.0937
3524.00,0.0943
3523.00,0.0948
3522.00,0.0953
3521.00,0.0958
3520.00,0.0962
3519.00,0.0966
3518.00,0.0970
3517.00,0.0974
3516.00,0.0979
3515.00,0.0984
3514.00,0.0989
3513.00,0.0995
3512.00,0.1000
3511.00,0.1005
3510.00,0.1010
3509.00,0.1014
3508.00,0.1019
3507.00,0.1025
3506.00,0.1030
3505.00,0.1036
3504.00,0.1041
3503.00,0.1045
3502.00,0.1050
3501.00,0.1055
3500.00,0.1060
3499.00,0.1064
3498.00,0.1069
3497.00,0.1073
3496.00,0.1077
3495.00,0.1082
3494.00,0.1086
3493.00,0.1091
3492.00,0.1096
3491.00,0.1100
3490.00,0.1105
3489.00,0.1110
3488.00,0.1115
3487.00,0.1119
3486.00,0.1123
3485.00,0.1127
3484.00,0.1132
3483.00,0.1136
3482.00,0.1141
3481.00,0.1146
3480.00,0.1151
3479.00,0.1155
3478.00,0.1159
3477.00,0.1163
3476.00,0.1168
3475.00,0.1172
3474.00,0.1177
3473.00,0.1182
3472.00,0.1187
3471.00,0.1192
3470.00,0.1197
3469.00,0.1201
3468.00,0.1206
3467.00,0.1210
3466.00,0.1214
3465.00,0.1217
3464.00,0.1221
3463.00,0.1224
3462.00,0.1228
3461.00,0.1232
3460.00,0.1236
3459.00,0.1240
3458.00,0.1244
3457.00,0.1247
3456.00,0.1251
3455.00,0.1255
3454.00,0.1258
3453.00,0.1262
3452.00,0.1266
3451.00,0.1270
3450.00,0.1274
3449.00,0.1277
3448.00,0.1281
3447.00,0.1284
3446.00,0.1287
3445.00,0.1290
3444.00,0.1294
3443.00,0.1297
3442.00,0.1301
3441.00,0.1304
3440.00,0.1309
3439.00,0.1313
3438.00,0.1316
3437.00,0.1320
3436.00,0.1323
3435.00,0.1325
3434.00,0.1328
3433.00,0.1331
3432.00,0.1334
3431.00,0.1338
3430.00,0.1341
3429.00,0.1343
3428.00,0.1345
3427.00,0.1347
3426.00,0.1349
3425.00,0.1352
3424.00,0.1355
3423.00,0.1358
3422.00,0.1361
3421.00,0.1363
3420.00,0.1365
3419.00,0.1367
3418.00,0.1369
3417.00,0.1370
3416.00,0.1373
3415.00,0.1375
3414.00,0.1377
3413.00,0.1380
3412.00,0.1382
3411.00,0.1384
3410.00,0.1386
3409.00,0.1387
3408.00,0.1388
3407.00,0.1389
3406.00,0.1390
3405.00,0.1392
3404.00,0.1394
3403.00,0.1396
3402.00,0.1397
3401.00,0.1399
3400.00,0.1399
3399.00,0.1400
3398.00,0.1400
3397.00,0.1400
3396.00,0.1401
3395.00,0.1402
3394.00,0.1402
3393.00,0.1403
3392.00,0.1403
3391.00,0.1403
3390.00,0.1402
3389.00,0.1402
3388.00,0.1401
3387.00,0.1401
3386.00,0.1401
3385.00,0.1400
3384.00,0.1400
3383.00,0.1400
3382.00,0.1400
3381.00,0.1400
3380.00,0.1399
3379.00,0.1398
3378.00,0.1398
3377.00,0.1398
3376.00,0.1397
3375.00,0.1396
3374.00,0.1395
3373.00,0.1394
3372.00,0.1393
3371.00,0.1392
3370.00,0.1391
3369.00,0.1391
3368.00,0.1389
3367.00,0.1387
3366.00,0.1385
3365.00,0.1382
3364.00,0.1380
3363.00,0.1378
3362.00,0.1377
3361.00,0.1375
3360.00,0.1372
3359.00,0.1370
3358.00,0.1368
3357.00,0.1366
3356.00,0.1364
3355.00,0.1362
3354.00,0.1360
3353.00,0.1358
3352.00,0.1356
3351.00,0.1353
3350.00,0.1351
3349.00,0.1348
3348.00,0.1346
3347.00,0.1343
3346.00,0.1340
3345.00,0.1338
3344.00,0.1336
3343.00,0.1333
3342.00,0.1330
3341.00,0.1327
3340.00,0.1324
3339.00,0.1321
3338.00,0.1318
3337.00,0.1315
3336.00,0.1312
3335.00,0.1309
3334.00,0.1306
3333.00,0.1302
3332.00,0.1299
3331.00,0.1295
3330.00,0.1292
3329.00,0.1290
3328.00,0.1287
3327.00,0.1285
3326.00,0.1283
3325.00,0.1280
3324.00,0.1277
3323.00,0.1273
3322.00,0.1270
3321.00,0.1267
3320.00,0.1264
3319.00,0.1261
3318.00,0.1257
3317.00,0.1254
3316.00,0.1251
3315.00,0.1248
3314.00,0.1246
3313.00,0.1243
3312.00,0.1241
3311.00,0.1239
3310.00,0.1237
3309.00,0.1234
3308.00,0.1231
3307.00,0.1227
3306.00,0.1224
3305.00,0.1221
3304.00,0.1218
3303.00,0.1216
3302.00,0.1213
3301.00,0.1211
3300.00,0.1208
3299.00,0.1205
3298.00,0.1203
3297.00,0.1200
3296.00,0.1197
3295.00,0.1194
3294.00,0.1192
3293.00,0.1189
3292.00,0.1186
3291.00,0.1183
3290.00,0.1180
3289.00,0.1178
3288.00,0.1175
3287.00,0.1173
3286.00,0.1170
3285.00,0.1167
3284.00,0.1164
3283.00,0.1161
3282.00,0.1158
3281.00,0.1156
3280.00,0.1153
3279.00,0.1151
3278.00,0.1148
3277.00,0.1146
3276.00,0.1143
3275.00,0.1141
3274.00,0.1138
3273.00,0.1135
3272.00,0.1133
3271.00,0.1130
3270.00,0.1127
3269.00,0.1124
3268.00,0.1122
3267.00,0.1119
3266.00,0.1116
3265.00,0.1113
3264.00,0.1111
3263.00,0.1108
3262.00,0.1105
3261.00,0.1102
3260.00,0.1099
3259.00,0.1095
3258.00,0.1092
3257.00,0.1089
3256.00,0.1086
3255.00,0.1082
3254.00,0.1079
3253.00,0.1076
3252.00,0.1073
3251.00,0.1070
3250.00,0.1066
3249.00,0.1062
3248.00,0.1059
3247.00,0.1056
3246.00,0.1053
3245.00,0.1049
3244.00,0.1046
3243.00,0.1043
3242.00,0.1039
3241.00,0.1036
3240.00,0.1032
3239.00,0.1028
3238.00,0.1024
3237.00,0.1020
3236.00,0.1016
3235.00,0.1013
3234.00,0.1009
3233.00,0.1005
3232.00,0.1001
3231.00,0.0996
3230.00,0.0992
3229.00,0.0988
3228.00,0.0984
3227.00,0.0980
3226.00,0.0976
3225.00,0.0971
3224.00,0.0967
3223.00,0.0963
3222.00,0.0958
3221.00,0.0954
3220.00,0.0949
3219.00,0.0945
3218.00,0.0940
3217.00,0.0936
3216.00,0.0932
3215.00,0.0927
3214.00,0.0923
3213.00,0.0919
3212.00,0.0914
3211.00,0.0909
3210.00,0.0905
3209.00,0.0900
3208.00,0.0895
3207.00,0.0890
3206.00,0.0885
3205.00,0.0880
3204.00,0.0876
3203.00,0.0871
3202.00,0.0866
3201.00,0.0861
3200.00,0.0856
3199.00,0.0851
3198.00,0.0846
3197.00,0.0841
3196.00,0.0836
3195.00,0.0831
3194.00,0.0826
3193.00,0.0821
3192.00,0.0817
3191.00,0.0812
3190.00,0.0807
3189.00,0.0802
3188.00,0.0797
3187.00,0.0791
3186.00,0.0787
3185.00,0.0782
3184.00,0.0777
3183.00,0.0772
3182.00,0.0767
3181.00,0.0763
3180.00,0.0758
3179.00,0.0754
3178.00,0.0750
3177.00,0.0745
3176.00,0.0740
3175.00,0.0735
3174.00,0.0730
3173.00,0.0726
3172.00,0.0721
3171.00,0.0716
3170.00,0.0712
3169.00,0.0707
3168.00,0.0703
3167.00,0.0698
3166.00,0.0694
3165.00,0.0689
3164.00,0.0684
3163.00,0.0679
3162.00,0.0674
3161.00,0.0669
3160.00,0.0665
3159.00,0.0661
3158.00,0.0656
3157.00,0.0652
3156.00,0.0648
3155.00,0.0644
3154.00,0.0640
3153.00,0.0636
3152.00,0.0631
3151.00,0.0626
3150.00,0.0622
3149.00,0.0617
3148.00,0.0613
3147.00,0.0609
3146.00,0.0605
3145.00,0.0602
3144.00,0.0598
3143.00,0.0594
3142.00,0.0589
3141.00,0.0585
3140.00,0.0582
3139.00,0.0578
3138.00,0.0574
3137.00,0.0570
3136.00,0.0566
3135.00,0.0562
3134.00,0.0558
3133.00,0.0554
3132.00,0.0551
3131.00,0.0547
3130.00,0.0544
3129.00,0.0540
3128.00,0.0537
3127.00,0.0533
3126.00,0.0529
3125.00,0.0526
3124.00,0.0522
3123.00,0.0518
3122.00,0.0515
3121.00,0.0512
3120.00,0.0509
3119.00,0.0505
3118.00,0.0502
3117.00,0.0499
3116.00,0.0496
3115.00,0.0493
3114.00,0.0489
3113.00,0.0486
3112.00,0.0482
3111.00,0.0479
3110.00,0.0476
3109.00,0.0472
3108.00,0.0469
3107.00,0.0466
3106.00,0.0463
3105.00,0.0461
3104.00,0.0458
3103.00,0.0455
3102.00,0.0452
3101.00,0.0449
3100.00,0.0446
3099.00,0.0443
3098.00,0.0440
3097.00,0.0437
3096.00,0.0434
3095.00,0.0431
3094.00,0.0429
3093.00,0.0427
3092.00,0.0424
3091.00,0.0422
3090.00,0.0419
3089.00,0.0416
3088.00,0.0414
3087.00,0.0411
3086.00,0.0408
3085.00,0.0405
3084.00,0.0402
3083.00,0.0399
3082.00,0.0396
3081.00,0.0394
3080.00,0.0391
3079.00,0.0389
3078.00,0.0388
3077.00,0.0386
3076.00,0.0384
3075.00,0.0381
3074.00,0.0379
3073.00,0.0377
3072.00,0.0374
3071.00,0.0372
3070.00,0.0369
3069.00,0.0367
3068.00,0.0365
3067.00,0.0363
3066.00,0.0360
3065.00,0.0358
3064.00,0.0356
3063.00,0.0354
3062.00,0.0352
3061.00,0.0350
3060.00,0.0348
3059.00,0.0346
3058.00,0.0344
3057.00,0.0342
3056.00,0.0340
3055.00,0.0337
3054.00,0.0335
3053.00,0.0334
3052.00,0.0332
3051.00,0.0330
3050.00,0.0328
3049.00,0.0327
3048.00,0.0325
3047.00,0.0323
3046.00,0.0321
3045.00,0.0319
3044.00,0.0318
3043.00,0.0316
3042.00,0.0314
3041.00,0.0312
3040.00,0.0310
3039.00,0.0308
3038.00,0.0306
3037.00,0.0305
3036.00,0.0303
3035.00,0.0302
3034.00,0.0300
3033.00,0.0299
3032.00,0.0297
3031.00,0.0296
3030.00,0.0295
3029.00,0.0294
3028.00,0.0292
3027.00,0.0290
3026.00,0.0289
3025.00,0.0288
3024.00,0.0286
3023.00,0.0285
3022.00,0.0284
3021.00,0.0283
3020.00,0.0282
3019.00,0.0281
3018.00,0.0280
3017.00,0.0279
3016.00,0.0278
3015.00,0.0277
3014.00,0.0276
3013.00,0.0275
3012.00,0.0273
3011.00,0.0272
3010.00,0.0271
3009.00,0.0270
3008.00,0.0269
3007.00,0.0268
3006.00,0.0267
3005.00,0.0266
3004.00,0.0265
3003.00,0.0264
3002.00,0.0263
3001.00,0.0262
3000.00,0.0262
2999.00,0.0262
2998.00,0.0262
2997.00,0.0262
2996.00,0.0261
2995.00,0.0261
2994.00,0.0261
2993.00,0.0260
2992.00,0.0260
2991.00,0.0260
2990.00,0.0260
2989.00,0.0260
2988.00,0.0260
2987.00,0.0260
2986.00,0.0260
2985.00,0.0260
2984.00,0.0260
2983.00,0.0260
2982.00,0.0260
2981.00,0.0261
2980.00,0.0261
2979.00,0.0261
2978.00,0.0261
2977.00,0.0262
2976.00,0.0262
2975.00,0.0263
2974.00,0.0263
2973.00,0.0263
2972.00,0.0264
2971.00,0.0264
2970.00,0.0264
2969.00,0.0264
2968.00,0.0265
2967.00,0.0265
2966.00,0.0265
2965.00,0.0265
2964.00,0.0265
2963.00,0.0265
2962.00,0.0265
2961.00,0.0266
2960.00,0.0266
2959.00,0.0265
2958.00,0.0265
2957.00,0.0264
2956.00,0.0264
2955.00,0.0264
2954.00,0.0263
2953.00,0.0263
2952.00,0.0262
2951.00,0.0262
2950.00,0.0261
2949.00,0.0260
2948.00,0.0260
2947.00,0.0260
2946.00,0.0260
2945.00,0.0260
2944.00,0.0260
2943.00,0.0260
2942.00,0.0261
2941.00,0.0261
2940.00,0.0261
2939.00,0.0261
2938.00,0.0261
2937.00,0.0262
2936.00,0.0262
2935.00,0.0263
2934.00,0.0263
2933.00,0.0264
2932.00,0.0265
2931.00,0.0266
2930.00,0.0267
2929.00,0.0268
2928.00,0.0269
2927.00,0.0269
2926.00,0.0270
2925.00,0.0270
2924.00,0.0271
2923.00,0.0271
2922.00,0.0271
2921.00,0.0272
2920.00,0.0272
2919.00,0.0271
2918.00,0.0269
2917.00,0.0268
2916.00,0.0265
2915.00,0.0263
2914.00,0.0261
2913.00,0.0258
2912.00,0.0256
2911.00,0.0254
2910.00,0.0252
2909.00,0.0250
2908.00,0.0248
2907.00,0.0247
2906.00,0.0245
2905.00,0.0244
2904.00,0.0242
2903.00,0.0240
2902.00,0.0238
2901.00,0.0236
2900.00,0.0235
2899.00,0.0233
2898.00,0.0232
2897.00,0.0231
2896.00,0.0229
2895.00,0.0228
2894.00,0.0226
2893.00,0.0225
2892.00,0.0223
2891.00,0.0221
2890.00,0.0220
2889.00,0.0218
2888.00,0.0217
2887.00,0.0216
2886.00,0.0214
2885.00,0.0213
2884.00,0.0211
2883.00,0.0210
2882.00,0.0209
2881.00,0.0208
2880.00,0.0207
2879.00,0.0206
2878.00,0.0205
2877.00,0.0204
2876.00,0.0203
2875.00,0.0202
2874.00,0.0201
2873.00,0.0200
2872.00,0.0199
2871.00,0.0198
2870.00,0.0197
2869.00,0.0196
2868.00,0.0195
2867.00,0.0194
2866.00,0.0193
2865.00,0.0192
2864.00,0.0191
2863.00,0.0191
2862.00,0.0190
2861.00,0.0190
2860.00,0.0190
2859.00,0.0190
2858.00,0.0190
2857.00,0.0190
2856.00,0.0191
2855.00,0.0191
2854.00,0.0191
2853.00,0.0191
2852.00,0.0190
2851.00,0.0189
2850.00,0.0187
2849.00,0.0185
2848.00,0.0183
2847.00,0.0180
2846.00,0.0177
2845.00,0.0174
2844.00,0.0171
2843.00,0.0169
2842.00,0.0167
2841.00,0.0165
2840.00,0.0163
2839.00,0.0162
2838.00,0.0160
2837.00,0.0159
2836.00,0.0158
2835.00,0.0157
2834.00,0.0155
2833.00,0.0154
2832.00,0.0153
2831.00,0.0153
2830.00,0.0152
2829.00,0.0151
2828.00,0.0150
2827.00,0.0149
2826.00,0.0149
2825.00,0.0148
2824.00,0.0148
2823.00,0.0147
2822.00,0.0146
2821.00,0.0146
2820.00,0.0145
2819.00,0.0145
2818.00,0.0144
2817.00,0.0144
2816.00,0.0143
2815.00,0.0142
2814.00,0.0141
2813.00,0.0141
2812.00,0.0141
2811.00,0.0140
2810.00,0.0140
2809.00,0.0139
2808.00,0.0139
2807.00,0.0138
2806.00,0.0137
2805.00,0.0137
2804.00,0.0137
2803.00,0.0136
2802.00,0.0136
2801.00,0.0136
2800.00,0.0135
2799.00,0.0135
2798.00,0.0134
2797.00,0.0134
2796.00,0.0133
2795.00,0.0133
2794.00,0.0133
2793.00,0.0132
2792.00,0.0132
2791.00,0.0132
2790.00,0.0131
2789.00,0.0131
2788.00,0.0131
2787.00,0.0130
2786.00,0.0130
2785.00,0.0129
2784.00,0.0129
2783.00,0.0128
2782.00,0.0128
2781.00,0.0127
2780.00,0.0127
2779.00,0.0126
2778.00,0.0126
2777.00,0.0125
2776.00,0.0125
2775.00,0.0124
2774.00,0.0124
2773.00,0.0124
2772.00,0.0124
2771.00,0.0123
2770.00,0.0122
2769.00,0.0122
2768.00,0.0122
2767.00,0.0122
2766.00,0.0121
2765.00,0.0121
2764.00,0.0121
2763.00,0.0121
2762.00,0.0120
2761.00,0.0120
2760.00,0.0120
2759.00,0.0120
2758.00,0.0119
2757.00,0.0119
2756.00,0.0118
2755.00,0.0118
2754.00,0.0118
2753.00,0.0118
2752.00,0.0118
2751.00,0.0118
2750.00,0.0117
2749.00,0.0117
2748.00,0.0117
2747.00,0.0116
2746.00,0.0116
2745.00,0.0116
2744.00,0.0115
2743.00,0.0115
2742.00,0.0115
2741.00,0.0114
2740.00,0.0114
2739.00,0.0114
2738.00,0.0114
2737.00,0.0114
2736.00,0.0113
2735.00,0.0113
2734.00,0.0113
2733.00,0.0113
2732.00,0.0113
2731.00,0.0112
2730.00,0.0112
2729.00,0.0111
2728.00,0.0111
2727.00,0.0111
2726.00,0.0111
2725.00,0.0111
2724.00,0.0111
2723.00,0.0110
2722.00,0.0110
2721.00,0.0110
2720.00,0.0110
2719.00,0.0110
2718.00,0.0110
2717.00,0.0110
2716.00,0.0110
2715.00,0.0109
2714.00,0.0109
2713.00,0.0108
2712.00,0.0108
2711.00,0.0108
2710.00,0.0108
2709.00,0.0108
2708.00,0.0107
2707.00,0.0107
2706.00,0.0107
2705.00,0.0107
2704.00,0.0107
2703.00,0.0107
2702.00,0.0106
2701.00,0.0106
2700.00,0.0106
2699.00,0.0105
2698.00,0.0106
2697.00,0.0105
2696.00,0.0105
2695.00,0.0105
2694.00,0.0105
2693.00,0.0105
2692.00,0.0105
2691.00,0.0105
2690.00,0.0104
2689.00,0.0104
2688.00,0.0104
2687.00,0.0104
2686.00,0.0103
2685.00,0.0103
2684.00,0.0102
2683.00,0.0102
2682.00,0.0102
2681.00,0.0102
2680.00,0.0102
2679.00,0.0102
2678.00,0.0102
2677.00,0.0102
2676.00,0.0101
2675.00,0.0101
2674.00,0.0101
2673.00,0.0101
2672.00,0.0101
2671.00,0.0101
2670.00,0.0101
2669.00,0.0101
2668.00,0.0101
2667.00,0.0101
2666.00,0.0101
2665.00,0.0102
2664.00,0.0102
2663.00,0.0103
2662.00,0.0104
2661.00,0.0105
2660.00,0.0105
2659.00,0.0106
2658.00,0.0106
2657.00,0.0107
2656.00,0.0107
2655.00,0.0107
2654.00,0.0107
2653.00,0.0107
2652.00,0.0106
2651.00,0.0106
2650.00,0.0105
2649.00,0.0105
2648.00,0.0104
2647.00,0.0104
2646.00,0.0104
2645.00,0.0104
2644.00,0.0104
2643.00,0.0104
2642.00,0.0103
2641.00,0.0103
2640.00,0.0103
2639.00,0.0103
2638.00,0.0102
2637.00,0.0101
2636.00,0.0101
2635.00,0.0100
2634.00,0.0100
2633.00,0.0100
2632.00,0.0099
2631.00,0.0099
2630.00,0.0099
2629.00,0.0099
2628.00,0.0099
2627.00,0.0099
2626.00,0.0098
2625.00,0.0098
2624.00,0.0097
2623.00,0.0097
2622.00,0.0096
2621.00,0.0095
2620.00,0.0095
2619.00,0.0095
2618.00,0.0095
2617.00,0.0094
2616.00,0.0094
2615.00,0.0094
2614.00,0.0094
2613.00,0.0094
2612.00,0.0094
2611.00,0.0094
2610.00,0.0093
2609.00,0.0093
2608.00,0.0093
2607.00,0.0092
2606.00,0.0091
2605.00,0.0091
2604.00,0.0090
2603.00,0.0089
2602.00,0.0089
2601.00,0.0090
2600.00,0.0090
2599.00,0.0090
2598.00,0.0090
2597.00,0.0090
2596.00,0.0089
2595.00,0.0089
2594.00,0.0088
2593.00,0.0087
2592.00,0.0087
2591.00,0.0087
2590.00,0.0087
2589.00,0.0088
2588.00,0.0088
2587.00,0.0087
2586.00,0.0086
2585.00,0.0085
2584.00,0.0084
2583.00,0.0084
2582.00,0.0084
2581.00,0.0084
2580.00,0.0083
2579.00,0.0083
2578.00,0.0083
2577.00,0.0083
2576.00,0.0083
2575.00,0.0084
2574.00,0.0084
2573.00,0.0084
2572.00,0.0083
2571.00,0.0083
2570.00,0.0083
2569.00,0.0082
2568.00,0.0082
2567.00,0.0082
2566.00,0.0081
2565.00,0.0081
2564.00,0.0081
2563.00,0.0081
2562.00,0.0081
2561.00,0.0082
2560.00,0.0082
2559.00,0.0082
2558.00,0.0082
2557.00,0.0082
2556.00,0.0081
2555.00,0.0080
2554.00,0.0079
2553.00,0.0078
2552.00,0.0078
2551.00,0.0078
2550.00,0.0078
2549.00,0.0079
2548.00,0.0079
2547.00,0.0079
2546.00,0.0079
2545.00,0.0078
2544.00,0.0078
2543.00,0.0079
2542.00,0.0079
2541.00,0.0079
2540.00,0.0079
2539.00,0.0079
2538.00,0.0079
2537.00,0.0079
2536.00,0.0079
2535.00,0.0079
2534.00,0.0078
2533.00,0.0078
2532.00,0.0077
2531.00,0.0077
2530.00,0.0077
2529.00,0.0077
2528.00,0.0077
2527.00,0.0076
2526.00,0.0075
2525.00,0.0075
2524.00,0.0075
2523.00,0.0075
2522.00,0.0076
2521.00,0.0076
2520.00,0.0077
2519.00,0.0076
2518.00,0.0076
2517.00,0.0075
2516.00,0.0075
2515.00,0.0075
2514.00,0.0075
2513.00,0.0076
2512.00,0.0076
2511.00,0.0076
2510.00,0.0076
2509.00,0.0076
2508.00,0.0076
2507.00,0.0076
2506.00,0.0076
2505.00,0.0076
2504.00,0.0075
2503.00,0.0075
2502.00,0.0074
2501.00,0.0074
2500.00,0.0074
2499.00,0.0074
2498.00,0.0075
2497.00,0.0075
2496.00,0.0075
2495.00,0.0075
2494.00,0.0075
2493.00,0.0076
2492.00,0.0076
2491.00,0.0076
2490.00,0.0076
2489.00,0.0075
2488.00,0.0075
2487.00,0.0075
2486.00,0.0075
2485.00,0.0075
2484.00,0.0075
2483.00,0.0075
2482.00,0.0075
2481.00,0.0074
2480.00,0.0074
2479.00,0.0074
2478.00,0.0074
2477.00,0.0073
2476.00,0.0073
2475.00,0.0073
2474.00,0.0073
2473.00,0.0073
2472.00,0.0073
2471.00,0.0073
2470.00,0.0073
2469.00,0.0074
2468.00,0.0074
2467.00,0.0074
2466.00,0.0073
2465.00,0.0074
2464.00,0.0074
2463.00,0.0075
2462.00,0.0075
2461.00,0.0076
2460.00,0.0076
2459.00,0.0076
2458.00,0.0077
2457.00,0.0077
2456.00,0.0077
2455.00,0.0077
2454.00,0.0077
2453.00,0.0078
2452.00,0.0077
2451.00,0.0077
2450.00,0.0077
2449.00,0.0076
2448.00,0.0076
2447.00,0.0076
2446.00,0.0076
2445.00,0.0076
2444.00,0.0076
2443.00,0.0076
2442.00,0.0076
2441.00,0.0076
2440.00,0.0075
2439.00,0.0075
2438.00,0.0074
2437.00,0.0074
2436.00,0.0074
2435.00,0.0075
2434.00,0.0075
2433.00,0.0074
2432.00,0.0074
2431.00,0.0073
2430.00,0.0072
2429.00,0.0072
2428.00,0.0072
2427.00,0.0072
2426.00,0.0072
2425.00,0.0072
2424.00,0.0072
2423.00,0.0072
2422.00,0.0072
2421.00,0.0072
2420.00,0.0072
2419.00,0.0072
2418.00,0.0072
2417.00,0.0072
2416.00,0.0073
2415.00,0.0073
2414.00,0.0073
2413.00,0.0073
2412.00,0.0073
2411.00,0.0073
2410.00,0.0073
2409.00,0.0073
2408.00,0.0072
2407.00,0.0072
2406.00,0.0071
2405.00,0.0071
2404.00,0.0070
2403.00,0.0070
2402.00,0.0071
2401.00,0.0071
2400.00,0.0071
2399.00,0.0071
2398.00,0.0071
2397.00,0.0071
2396.00,0.0071
2395.00,0.0071
2394.00,0.0070
2393.00,0.0070
2392.00,0.0071
2391.00,0.0071
2390.00,0.0072
2389.00,0.0072
2388.00,0.0071
2387.00,0.0071
2386.00,0.0070
2385.00,0.0070
2384.00,0.0070
2383.00,0.0070
2382.00,0.0069
2381.00,0.0068
2380.00,0.0068
2379.00,0.0067
2378.00,0.0067
2377.00,0.0067
2376.00,0.0068
2375.00,0.0069
2374.00,0.0070
2373.00,0.0070
2372.00,0.0070
2371.00,0.0070
2370.00,0.0070
2369.00,0.0069
2368.00,0.0068
2367.00,0.0067
2366.00,0.0068
2365.00,0.0069
2364.00,0.0070
2363.00,0.0072
2362.00,0.0072
2361.00,0.0073
2360.00,0.0073
2359.00,0.0074
2358.00,0.0074
2357.00,0.0074
2356.00,0.0075
2355.00,0.0075
2354.00,0.0076
2353.00,0.0076
2352.00,0.0076
2351.00,0.0076
2350.00,0.0077
2349.00,0.0078
2348.00,0.0080
2347.00,0.0082
2346.00,0.0084
2345.00,0.0083
2344.00,0.0083
2343.00,0.0083
2342.00,0.0084
2341.00,0.0085
2340.00,0.0086
2339.00,0.0086
2338.00,0.0086
2337.00,0.0086
2336.00,0.0086
2335.00,0.0086
2334.00,0.0086
2333.00,0.0087
2332.00,0.0086
2331.00,0.0086
2330.00,0.0085
2329.00,0.0087
2328.00,0.0090
2327.00,0.0096
2326.00,0.0104
2325.00,0.0110
2324.00,0.0114
2323.00,0.0114
2322.00,0.0110
2321.00,0.0107
2320.00,0.0104
2319.00,0.0102
2318.00,0.0102
2317.00,0.0101
2316.00,0.0100
2315.00,0.0100
2314.00,0.0099
2313.00,0.0098
2312.00,0.0097
2311.00,0.0097
2310.00,0.0097
2309.00,0.0098
2308.00,0.0098
2307.00,0.0098
2306.00,0.0098
2305.00,0.0098
2304.00,0.0098
2303.00,0.0099
2302.00,0.0099
2301.00,0.0100
2300.00,0.0101
2299.00,0.0101
2298.00,0.0101
2297.00,0.0102
2296.00,0.0103
2295.00,0.0105
2294.00,0.0106
2293.00,0.0108
2292.00,0.0109
2291.00,0.0110
2290.00,0.0111
2289.00,0.0112
2288.00,0.0113
2287.00,0.0115
2286.00,0.0116
2285.00,0.0116
2284.00,0.0115
2283.00,0.0114
2282.00,0.0112
2281.00,0.0110
2280.00,0.0109
2279.00,0.0107
2278.00,0.0106
2277.00,0.0105
2276.00,0.0104
2275.00,0.0104
2274.00,0.0103
2273.00,0.0104
2272.00,0.0104
2271.00,0.0104
2270.00,0.0104
2269.00,0.0104
2268.00,0.0104
2267.00,0.0103
2266.00,0.0102
2265.00,0.0101
2264.00,0.0101
2263.00,0.0101
2262.00,0.0101
2261.00,0.0102
2260.00,0.0103
2259.00,0.0103
2258.00,0.0103
2257.00,0.0102
2256.00,0.0100
2255.00,0.0097
2254.00,0.0095
2253.00,0.0095
2252.00,0.0095
2251.00,0.0096
2250.00,0.0096
2249.00,0.0096
2248.00,0.0096
2247.00,0.0096
2246.00,0.0095
2245.00,0.0095
2244.00,0.0095
2243.00,0.0095
2242.00,0.0096
2241.00,0.0097
2240.00,0.0097
2239.00,0.0098
2238.00,0.0098
2237.00,0.0099
2236.00,0.0100
2235.00,0.0101
2234.00,0.0101
2233.00,0.0101
2232.00,0.0099
2231.00,0.0098
2230.00,0.0096
2229.00,0.0096
2228.00,0.0096
2227.00,0.0097
2226.00,0.0097
2225.00,0.0097
2224.00,0.0098
2223.00,0.0099
2222.00,0.0099
2221.00,0.0099
2220.00,0.0099
2219.00,0.0098
2218.00,0.0097
2217.00,0.0095
2216.00,0.0094
2215.00,0.0094
2214.00,0.0095
2213.00,0.0097
2212.00,0.0098
2211.00,0.0098
2210.00,0.0098
2209.00,0.0098
2208.00,0.0098
2207.00,0.0098
2206.00,0.0098
2205.00,0.0097
2204.00,0.0097
2203.00,0.0097
2202.00,0.0097
2201.00,0.0096
2200.00,0.0095
2199.00,0.0095
2198.00,0.0095
2197.00,0.0097
2196.00,0.0099
2195.00,0.0101
2194.00,0.0102
2193.00,0.0102
2192.00,0.0102
2191.00,0.0101
2190.00,0.0100
2189.00,0.0100
2188.00,0.0102
2187.00,0.0104
2186.00,0.0106
2185.00,0.0107
2184.00,0.0107
2183.00,0.0104
2182.00,0.0100
2181.00,0.0096
2180.00,0.0096
2179.00,0.0096
2178.00,0.0097
2177.00,0.0095
2176.00,0.0092
2175.00,0.0089
2174.00,0.0089
2173.00,0.0092
2172.00,0.0096
2171.00,0.0101
2170.00,0.0106
2169.00,0.0111
2168.00,0.0115
2167.00,0.0119
2166.00,0.0120
2165.00,0.0119
2164.00,0.0118
2163.00,0.0117
2162.00,0.0114
2161.00,0.0104
2160.00,0.0087
2159.00,0.0063
2158.00,0.0042
2157.00,0.0031
2156.00,0.0029
2155.00,0.0033
2154.00,0.0039
2153.00,0.0046
2152.00,0.0052
2151.00,0.0057
2150.00,0.0060
2149.00,0.0063
2148.00,0.0064
2147.00,0.0064
2146.00,0.0062
2145.00,0.0062
2144.00,0.0063
2143.00,0.0066
2142.00,0.0068
2141.00,0.0069
2140.00,0.0070
2139.00,0.0070
2138.00,0.0070
2137.00,0.0070
2136.00,0.0069
2135.00,0.0066
2134.00,0.0063
2133.00,0.0063
2132.00,0.0065
2131.00,0.0068
2130.00,0.0073
2129.00,0.0077
2128.00,0.0081
2127.00,0.0083
2126.00,0.0086
2125.00,0.0088
2124.00,0.0092
2123.00,0.0095
2122.00,0.0099
2121.00,0.0101
2120.00,0.0102
2119.00,0.0104
2118.00,0.0105
2117.00,0.0107
2116.00,0.0109
2115.00,0.0112
2114.00,0.0113
2113.00,0.0113
2112.00,0.0113
2111.00,0.0112
2110.00,0.0111
2109.00,0.0111
2108.00,0.0112
2107.00,0.0114
2106.00,0.0116
2105.00,0.0118
2104.00,0.0119
2103.00,0.0119
2102.00,0.0118
2101.00,0.0117
2100.00,0.0116
2099.00,0.0115
2098.00,0.0113
2097.00,0.0110
2096.00,0.0106
2095.00,0.0104
2094.00,0.0102
2093.00,0.0102
2092.00,0.0103
2091.00,0.0105
2090.00,0.0107
2089.00,0.0109
2088.00,0.0110
2087.00,0.0110
2086.00,0.0109
2085.00,0.0110
2084.00,0.0111
2083.00,0.0112
2082.00,0.0112
2081.00,0.0114
2080.00,0.0115
2079.00,0.0116
2078.00,0.0116
2077.00,0.0116
2076.00,0.0114
2075.00,0.0113
2074.00,0.0113
2073.00,0.0113
2072.00,0.0113
2071.00,0.0113
2070.00,0.0111
2069.00,0.0108
2068.00,0.0105
2067.00,0.0104
2066.00,0.0102
2065.00,0.0102
2064.00,0.0102
2063.00,0.0102
2062.00,0.0104
2061.00,0.0105
2060.00,0.0105
2059.00,0.0105
2058.00,0.0105
2057.00,0.0106
2056.00,0.0106
2055.00,0.0106
2054.00,0.0107
2053.00,0.0111
2052.00,0.0117
2051.00,0.0122
2050.00,0.0121
2049.00,0.0117
2048.00,0.0113
2047.00,0.0108
2046.00,0.0103
2045.00,0.0100
2044.00,0.0097
2043.00,0.0096
2042.00,0.0094
2041.00,0.0093
2040.00,0.0091
2039.00,0.0091
2038.00,0.0091
2037.00,0.0092
2036.00,0.0092
2035.00,0.0091
2034.00,0.0089
2033.00,0.0086
2032.00,0.0085
2031.00,0.0083
2030.00,0.0080
2029.00,0.0078
2028.00,0.0078
2027.00,0.0077
2026.00,0.0076
2025.00,0.0074
2024.00,0.0072
2023.00,0.0070
2022.00,0.0069
2021.00,0.0069
2020.00,0.0069
2019.00,0.0068
2018.00,0.0066
2017.00,0.0064
2016.00,0.0064
2015.00,0.0065
2014.00,0.0067
2013.00,0.0069
2012.00,0.0072
2011.00,0.0074
2010.00,0.0075
2009.00,0.0072
2008.00,0.0066
2007.00,0.0059
2006.00,0.0054
2005.00,0.0052
2004.00,0.0054
2003.00,0.0056
2002.00,0.0059
2001.00,0.0062
2000.00,0.0067
1999.00,0.0072
1998.00,0.0078
1997.00,0.0083
1996.00,0.0087
1995.00,0.0087
1994.00,0.0084
1993.00,0.0080
1992.00,0.0079
1991.00,0.0080
1990.00,0.0084
1989.00,0.0088
1988.00,0.0092
1987.00,0.0093
1986.00,0.0093
1985.00,0.0094
1984.00,0.0097
1983.00,0.0101
1982.00,0.0106
1981.00,0.0110
1980.00,0.0109
1979.00,0.0102
1978.00,0.0089
1977.00,0.0076
1976.00,0.0066
1975.00,0.0060
1974.00,0.0056
1973.00,0.0055
1972.00,0.0055
1971.00,0.0055
1970.00,0.0056
1969.00,0.0058
1968.00,0.0060
1967.00,0.0061
1966.00,0.0060
1965.00,0.0060
1964.00,0.0062
1963.00,0.0064
1962.00,0.0063
1961.00,0.0061
1960.00,0.0058
1959.00,0.0055
1958.00,0.0055
1957.00,0.0058
1956.00,0.0062
1955.00,0.0065
1954.00,0.0065
1953.00,0.0065
1952.00,0.0065
1951.00,0.0066
1950.00,0.0066
1949.00,0.0066
1948.00,0.0066
1947.00,0.0066
1946.00,0.0065
1945.00,0.0065
1944.00,0.0064
1943.00,0.0064
1942.00,0.0063
1941.00,0.0065
1940.00,0.0068
1939.00,0.0071
1938.00,0.0072
1937.00,0.0071
1936.00,0.0070
1935.00,0.0069
1934.00,0.0068
1933.00,0.0067
1932.00,0.0068
1931.00,0.0068
1930.00,0.0068
1929.00,0.0068
1928.00,0.0068
1927.00,0.0069
1926.00,0.0070
1925.00,0.0071
1924.00,0.0072
1923.00,0.0073
1922.00,0.0073
1921.00,0.0074
1920.00,0.0075
1919.00,0.0075
1918.00,0.0074
1917.00,0.0073
1916.00,0.0073
1915.00,0.0074
1914.00,0.0075
1913.00,0.0076
1912.00,0.0077
1911.00,0.0076
1910.00,0.0074
1909.00,0.0073
1908.00,0.0072
1907.00,0.0073
1906.00,0.0074
1905.00,0.0075
1904.00,0.0075
1903.00,0.0076
1902.00,0.0076
1901.00,0.0077
1900.00,0.0077
1899.00,0.0076
1898.00,0.0076
1897.00,0.0076
1896.00,0.0077
1895.00,0.0077
1894.00,0.0077
1893.00,0.0077
1892.00,0.0078
1891.00,0.0078
1890.00,0.0077
1889.00,0.0076
1888.00,0.0076
1887.00,0.0076
1886.00,0.0077
1885.00,0.0077
1884.00,0.0076
1883.00,0.0076
1882.00,0.0075
1881.00,0.0075
1880.00,0.0076
1879.00,0.0077
1878.00,0.0078
1877.00,0.0078
1876.00,0.0079
1875.00,0.0079
1874.00,0.0079
1873.00,0.0079
1872.00,0.0079
1871.00,0.0079
1870.00,0.0079
1869.00,0.0078
1868.00,0.0077
1867.00,0.0077
1866.00,0.0077
1865.00,0.0079
1864.00,0.0080
1863.00,0.0080
1862.00,0.0080
1861.00,0.0079
1860.00,0.0078
1859.00,0.0078
1858.00,0.0079
1857.00,0.0079
1856.00,0.0079
1855.00,0.0079
1854.00,0.0079
1853.00,0.0079
1852.00,0.0079
1851.00,0.0080
1850.00,0.0080
1849.00,0.0080
1848.00,0.0080
1847.00,0.0081
1846.00,0.0082
1845.00,0.0082
1844.00,0.0082
1843.00,0.0082
1842.00,0.0082
1841.00,0.0083
1840.00,0.0084
1839.00,0.0084
1838.00,0.0084
1837.00,0.0083
1836.00,0.0083
1835.00,0.0083
1834.00,0.0082
1833.00,0.0082
1832.00,0.0083
1831.00,0.0083
1830.00,0.0082
1829.00,0.0083
1828.00,0.0084
1827.00,0.0085
1826.00,0.0086
1825.00,0.0086
1824.00,0.0085
1823.00,0.0085
1822.00,0.0086
1821.00,0.0087
1820.00,0.0086
1819.00,0.0085
1818.00,0.0084
1817.00,0.0083
1816.00,0.0083
1815.00,0.0084
1814.00,0.0086
1813.00,0.0088
1812.00,0.0090
1811.00,0.0090
1810.00,0.0091
1809.00,0.0092
1808.00,0.0093
1807.00,0.0093
1806.00,0.0094
1805.00,0.0094
1804.00,0.0094
1803.00,0.0094
1802.00,0.0095
1801.00,0.0096
1800.00,0.0097
1799.00,0.0097
1798.00,0.0098
1797.00,0.0099
1796.00,0.0100
1795.00,0.0101
1794.00,0.0102
1793.00,0.0103
1792.00,0.0103
1791.00,0.0103
1790.00,0.0103
1789.00,0.0104
1788.00,0.0105
1787.00,0.0106
1786.00,0.0107
1785.00,0.0107
1784.00,0.0107
1783.00,0.0106
1782.00,0.0106
1781.00,0.0107
1780.00,0.0108
1779.00,0.0109
1778.00,0.0109
1777.00,0.0109
1776.00,0.0110
1775.00,0.0110
1774.00,0.0111
1773.00,0.0112
1772.00,0.0112
1771.00,0.0113
1770.00,0.0115
1769.00,0.0117
1768.00,0.0120
1767.00,0.0120
1766.00,0.0120
1765.00,0.0121
1764.00,0.0122
1763.00,0.0123
1762.00,0.0124
1761.00,0.0124
1760.00,0.0125
1759.00,0.0127
1758.00,0.0128
1757.00,0.0130
1756.00,0.0131
1755.00,0.0132
1754.00,0.0133
1753.00,0.0136
1752.00,0.0139
1751.00,0.0141
1750.00,0.0142
1749.00,0.0143
1748.00,0.0145
1747.00,0.0148
1746.00,0.0149
1745.00,0.0151
1744.00,0.0153
1743.00,0.0154
1742.00,0.0156
1741.00,0.0159
1740.00,0.0161
1739.00,0.0162
1738.00,0.0163
1737.00,0.0164
1736.00,0.0168
1735.00,0.0172
1734.00,0.0174
1733.00,0.0175
1732.00,0.0176
1731.00,0.0179
1730.00,0.0181
1729.00,0.0183
1728.00,0.0186
1727.00,0.0188
1726.00,0.0191
1725.00,0.0193
1724.00,0.0196
1723.00,0.0199
1722.00,0.0201
1721.00,0.0203
1720.00,0.0206
1719.00,0.0209
1718.00,0.0213
1717.00,0.0218
1716.00,0.0223
1715.00,0.0228
1714.00,0.0232
1713.00,0.0236
1712.00,0.0239
1711.00,0.0243
1710.00,0.0246
1709.00,0.0249
1708.00,0.0253
1707.00,0.0257
1706.00,0.0261
1705.00,0.0266
1704.00,0.0270
1703.00,0.0275
1702.00,0.0282
1701.00,0.0291
1700.00,0.0299
1699.00,0.0305
1698.00,0.0311
1697.00,0.0319
1696.00,0.0329
1695.00,0.0338
1694.00,0.0345
1693.00,0.0351
1692.00,0.0359
1691.00,0.0367
1690.00,0.0376
1689.00,0.0384
1688.00,0.0392
1687.00,0.0400
1686.00,0.0409
1685.00,0.0420
1684.00,0.0435
1683.00,0.0449
1682.00,0.0461
1681.00,0.0472
1680.00,0.0482
1679.00,0.0492
1678.00,0.0502
1677.00,0.0512
1676.00,0.0525
1675.00,0.0538
1674.00,0.0551
1673.00,0.0562
1672.00,0.0573
1671.00,0.0586
1670.00,0.0600
1669.00,0.0615
1668.00,0.0630
1667.00,0.0642
1666.00,0.0652
1665.00,0.0662
1664.00,0.0675
1663.00,0.0688
1662.00,0.0703
1661.00,0.0716
1660.00,0.0728
1659.00,0.0739
1658.00,0.0748
1657.00,0.0755
1656.00,0.0761
1655.00,0.0768
1654.00,0.0779
1653.00,0.0798
1652.00,0.0816
1651.00,0.0826
1650.00,0.0831
1649.00,0.0837
1648.00,0.0845
1647.00,0.0855
1646.00,0.0866
1645.00,0.0874
1644.00,0.0879
1643.00,0.0884
1642.00,0.0888
1641.00,0.0890
1640.00,0.0892
1639.00,0.0893
1638.00,0.0894
1637.00,0.0894
1636.00,0.0894
1635.00,0.0895
1634.00,0.0894
1633.00,0.0891
1632.00,0.0888
1631.00,0.0885
1630.00,0.0879
1629.00,0.0872
1628.00,0.0864
1627.00,0.0856
1626.00,0.0848
1625.00,0.0840
1624.00,0.0829
1623.00,0.0817
1622.00,0.0805
1621.00,0.0794
1620.00,0.0783
1619.00,0.0773
1618.00,0.0760
1617.00,0.0745
1616.00,0.0730
1615.00,0.0716
1614.00,0.0704
1613.00,0.0693
1612.00,0.0681
1611.00,0.0668
1610.00,0.0655
1609.00,0.0641
1608.00,0.0629
1607.00,0.0617
1606.00,0.0605
1605.00,0.0594
1604.00,0.0583
1603.00,0.0572
1602.00,0.0562
1601.00,0.0552
1600.00,0.0542
1599.00,0.0533
1598.00,0.0524
1597.00,0.0515
1596.00,0.0506
1595.00,0.0497
1594.00,0.0490
1593.00,0.0483
1592.00,0.0476
1591.00,0.0469
1590.00,0.0462
1589.00,0.0455
1588.00,0.0449
1587.00,0.0443
1586.00,0.0438
1585.00,0.0433
1584.00,0.0428
1583.00,0.0423
1582.00,0.0419
1581.00,0.0414
1580.00,0.0410
1579.00,0.0406
1578.00,0.0403
1577.00,0.0400
1576.00,0.0396
1575.00,0.0392
1574.00,0.0389
1573.00,0.0385
1572.00,0.0383
1571.00,0.0380
1570.00,0.0377
1569.00,0.0374
1568.00,0.0372
1567.00,0.0371
1566.00,0.0370
1565.00,0.0368
1564.00,0.0365
1563.00,0.0361
1562.00,0.0359
1561.00,0.0356
1560.00,0.0352
1559.00,0.0350
1558.00,0.0351
1557.00,0.0351
1556.00,0.0352
1555.00,0.0352
1554.00,0.0352
1553.00,0.0350
1552.00,0.0348
1551.00,0.0346
1550.00,0.0344
1549.00,0.0342
1548.00,0.0341
1547.00,0.0340
1546.00,0.0339
1545.00,0.0337
1544.00,0.0335
1543.00,0.0333
1542.00,0.0332
1541.00,0.0331
1540.00,0.0329
1539.00,0.0326
1538.00,0.0323
1537.00,0.0320
1536.00,0.0319
1535.00,0.0317
1534.00,0.0314
1533.00,0.0311
1532.00,0.0308
1531.00,0.0307
1530.00,0.0305
1529.00,0.0303
1528.00,0.0301
1527.00,0.0300
1526.00,0.0298
1525.00,0.0296
1524.00,0.0294
1523.00,0.0292
1522.00,0.0291
1521.00,0.0290
1520.00,0.0287
1519.00,0.0285
1518.00,0.0284
1517.00,0.0282
1516.00,0.0281
1515.00,0.0280
1514.00,0.0279
1513.00,0.0279
1512.00,0.0278
1511.00,0.0275
1510.00,0.0272
1509.00,0.0270
1508.00,0.0268
1507.00,0.0267
1506.00,0.0268
1505.00,0.0268
1504.00,0.0267
1503.00,0.0266
1502.00,0.0265
1501.00,0.0265
1500.00,0.0264
1499.00,0.0262
1498.00,0.0262
1497.00,0.0262
1496.00,0.0262
1495.00,0.0261
1494.00,0.0261
1493.00,0.0262
1492.00,0.0263
1491.00,0.0264
1490.00,0.0264
1489.00,0.0265
1488.00,0.0266
1487.00,0.0268
1486.00,0.0270
1485.00,0.0271
1484.00,0.0273
1483.00,0.0275
1482.00,0.0278
1481.00,0.0281
1480.00,0.0284
1479.00,0.0286
1478.00,0.0288
1477.00,0.0290
1476.00,0.0292
1475.00,0.0294
1474.00,0.0298
1473.00,0.0302
1472.00,0.0306
1471.00,0.0308
1470.00,0.0310
1469.00,0.0311
1468.00,0.0312
1467.00,0.0312
1466.00,0.0313
1465.00,0.0315
1464.00,0.0316
1463.00,0.0318
1462.00,0.0319
1461.00,0.0319
1460.00,0.0319
1459.00,0.0320
1458.00,0.0322
1457.00,0.0326
1456.00,0.0328
1455.00,0.0329
1454.00,0.0329
1453.00,0.0330
1452.00,0.0330
1451.00,0.0330
1450.00,0.0330
1449.00,0.0331
1448.00,0.0331
1447.00,0.0331
1446.00,0.0332
1445.00,0.0333
1444.00,0.0334
1443.00,0.0335
1442.00,0.0336
1441.00,0.0337
1440.00,0.0338
1439.00,0.0339
1438.00,0.0340
1437.00,0.0342
1436.00,0.0344
1435.00,0.0346
1434.00,0.0347
1433.00,0.0348
1432.00,0.0348
1431.00,0.0349
1430.00,0.0350
1429.00,0.0352
1428.00,0.0353
1427.00,0.0354
1426.00,0.0354
1425.00,0.0356
1424.00,0.0357
1423.00,0.0357
1422.00,0.0358
1421.00,0.0359
1420.00,0.0360
1419.00,0.0360
1418.00,0.0361
1417.00,0.0363
1416.00,0.0364
1415.00,0.0364
1414.00,0.0364
1413.00,0.0365
1412.00,0.0365
1411.00,0.0366
1410.00,0.0367
1409.00,0.0367
1408.00,0.0367
1407.00,0.0367
1406.00,0.0367
1405.00,0.0367
1404.00,0.0368
1403.00,0.0367
1402.00,0.0367
1401.00,0.0366
1400.00,0.0365
1399.00,0.0364
1398.00,0.0363
1397.00,0.0362
1396.00,0.0361
1395.00,0.0361
1394.00,0.0362
1393.00,0.0362
1392.00,0.0363
1391.00,0.0364
1390.00,0.0366
1389.00,0.0369
1388.00,0.0373
1387.00,0.0378
1386.00,0.0384
1385.00,0.0390
1384.00,0.0395
1383.00,0.0400
1382.00,0.0405
1381.00,0.0409
1380.00,0.0413
1379.00,0.0416
1378.00,0.0418
1377.00,0.0420
1376.00,0.0420
1375.00,0.0420
1374.00,0.0420
1373.00,0.0420
1372.00,0.0419
1371.00,0.0418
1370.00,0.0416
1369.00,0.0413
1368.00,0.0411
1367.00,0.0409
1366.00,0.0407
1365.00,0.0405
1364.00,0.0402
1363.00,0.0401
1362.00,0.0400
1361.00,0.0400
1360.00,0.0400
1359.00,0.0400
1358.00,0.0399
1357.00,0.0399
1356.00,0.0399
1355.00,0.0398
1354.00,0.0397
1353.00,0.0396
1352.00,0.0394
1351.00,0.0392
1350.00,0.0389
1349.00,0.0386
1348.00,0.0382
1347.00,0.0378
1346.00,0.0375
1345.00,0.0372
1344.00,0.0369
1343.00,0.0367
1342.00,0.0365
1341.00,0.0363
1340.00,0.0362
1339.00,0.0361
1338.00,0.0360
1337.00,0.0360
1336.00,0.0360
1335.00,0.0360
1334.00,0.0359
1333.00,0.0358
1332.00,0.0358
1331.00,0.0358
1330.00,0.0359
1329.00,0.0359
1328.00,0.0360
1327.00,0.0361
1326.00,0.0361
1325.00,0.0362
1324.00,0.0362
1323.00,0.0363
1322.00,0.0364
1321.00,0.0365
1320.00,0.0366
1319.00,0.0367
1318.00,0.0368
1317.00,0.0369
1316.00,0.0370
1315.00,0.0371
1314.00,0.0372
1313.00,0.0373
1312.00,0.0375
1311.00,0.0376
1310.00,0.0377
1309.00,0.0379
1308.00,0.0380
1307.00,0.0382
1306.00,0.0384
1305.00,0.0386
1304.00,0.0389
1303.00,0.0392
1302.00,0.0396
1301.00,0.0400
1300.00,0.0404
1299.00,0.0409
1298.00,0.0415
1297.00,0.0421
1296.00,0.0429
1295.00,0.0437
1294.00,0.0445
1293.00,0.0454
1292.00,0.0463
1291.00,0.0473
1290.00,0.0484
1289.00,0.0495
1288.00,0.0507
1287.00,0.0519
1286.00,0.0531
1285.00,0.0544
1284.00,0.0558
1283.00,0.0572
1282.00,0.0588
1281.00,0.0604
1280.00,0.0620
1279.00,0.0637
1278.00,0.0653
1277.00,0.0671
1276.00,0.0688
1275.00,0.0706
1274.00,0.0724
1273.00,0.0742
1272.00,0.0760
1271.00,0.0778
1270.00,0.0796
1269.00,0.0812
1268.00,0.0829
1267.00,0.0844
1266.00,0.0859
1265.00,0.0873
1264.00,0.0887
1263.00,0.0900
1262.00,0.0911
1261.00,0.0923
1260.00,0.0933
1259.00,0.0943
1258.00,0.0951
1257.00,0.0958
1256.00,0.0965
1255.00,0.0971
1254.00,0.0976
1253.00,0.0981
1252.00,0.0986
1251.00,0.0990
1250.00,0.0993
1249.00,0.0997
1248.00,0.1000
1247.00,0.1004
1246.00,0.1008
1245.00,0.1012
1244.00,0.1016
1243.00,0.1021
1242.00,0.1026
1241.00,0.1032
1240.00,0.1037
1239.00,0.1043
1238.00,0.1049
1237.00,0.1056
1236.00,0.1062
1235.00,0.1068
1234.00,0.1074
1233.00,0.1079
1232.00,0.1083
1231.00,0.1087
1230.00,0.1090
1229.00,0.1092
1228.00,0.1094
1227.00,0.1095
1226.00,0.1095
1225.00,0.1094
1224.00,0.1094
1223.00,0.1093
1222.00,0.1091
1221.00,0.1089
1220.00,0.1086
1219.00,0.1083
1218.00,0.1078
1217.00,0.1073
1216.00,0.1068
1215.00,0.1062
1214.00,0.1055
1213.00,0.1047
1212.00,0.1040
1211.00,0.1033
1210.00,0.1025
1209.00,0.1017
1208.00,0.1009
1207.00,0.1000
1206.00,0.0989
1205.00,0.0978
1204.00,0.0967
1203.00,0.0956
1202.00,0.0945
1201.00,0.0935
1200.00,0.0927
1199.00,0.0921
1198.00,0.0916
1197.00,0.0914
1196.00,0.0914
1195.00,0.0915
1194.00,0.0916
1193.00,0.0918
1192.00,0.0919
1191.00,0.0918
1190.00,0.0915
1189.00,0.0911
1188.00,0.0907
1187.00,0.0901
1186.00,0.0896
1185.00,0.0891
1184.00,0.0886
1183.00,0.0883
1182.00,0.0881
1181.00,0.0881
1180.00,0.0883
1179.00,0.0886
1178.00,0.0891
1177.00,0.0898
1176.00,0.0906
1175.00,0.0916
1174.00,0.0927
1173.00,0.0939
1172.00,0.0953
1171.00,0.0969
1170.00,0.0985
1169.00,0.1004
1168.00,0.1024
1167.00,0.1045
1166.00,0.1066
1165.00,0.1087
1164.00,0.1106
1163.00,0.1125
1162.00,0.1142
1161.00,0.1158
1160.00,0.1170
1159.00,0.1179
1158.00,0.1185
1157.00,0.1188
1156.00,0.1190
1155.00,0.1188
1154.00,0.1184
1153.00,0.1178
1152.00,0.1170
1151.00,0.1161
1150.00,0.1150
1149.00,0.1139
1148.00,0.1127
1147.00,0.1115
1146.00,0.1104
1145.00,0.1093
1144.00,0.1084
1143.00,0.1077
1142.00,0.1072
1141.00,0.1070
1140.00,0.1072
1139.00,0.1078
1138.00,0.1089
1137.00,0.1103
1136.00,0.1123
1135.00,0.1146
1134.00,0.1173
1133.00,0.1201
1132.00,0.1231
1131.00,0.1258
1130.00,0.1284
1129.00,0.1306
1128.00,0.1323
1127.00,0.1335
1126.00,0.1343
1125.00,0.1347
1124.00,0.1348
1123.00,0.1347
1122.00,0.1343
1121.00,0.1339
1120.00,0.1335
1119.00,0.1331
1118.00,0.1328
1117.00,0.1325
1116.00,0.1323
1115.00,0.1321
1114.00,0.1319
1113.00,0.1318
1112.00,0.1317
1111.00,0.1315
1110.00,0.1313
1109.00,0.1312
1108.00,0.1312
1107.00,0.1314
1106.00,0.1316
1105.00,0.1321
1104.00,0.1328
1103.00,0.1335
1102.00,0.1345
1101.00,0.1356
1100.00,0.1370
1099.00,0.1384
1098.00,0.1398
1097.00,0.1412
1096.00,0.1425
1095.00,0.1435
1094.00,0.1443
1093.00,0.1450
1092.00,0.1457
1091.00,0.1464
1090.00,0.1472
1089.00,0.1481
1088.00,0.1491
1087.00,0.1503
1086.00,0.1517
1085.00,0.1533
1084.00,0.1551
1083.00,0.1571
1082.00,0.1592
1081.00,0.1615
1080.00,0.1641
1079.00,0.1668
1078.00,0.1697
1077.00,0.1727
1076.00,0.1757
1075.00,0.1787
1074.00,0.1815
1073.00,0.1842
1072.00,0.1868
1071.00,0.1893
1070.00,0.1916
1069.00,0.1937
1068.00,0.1954
1067.00,0.1963
1066.00,0.1965
1065.00,0.1959
1064.00,0.1947
1063.00,0.1928
1062.00,0.1906
1061.00,0.1883
1060.00,0.1862
1059.00,0.1845
1058.00,0.1832
1057.00,0.1825
1056.00,0.1823
1055.00,0.1824
1054.00,0.1828
1053.00,0.1835
1052.00,0.1844
1051.00,0.1855
1050.00,0.1868
1049.00,0.1882
1048.00,0.1900
1047.00,0.1919
1046.00,0.1939
1045.00,0.1961
1044.00,0.1981
1043.00,0.1999
1042.00,0.2012
1041.00,0.2021
1040.00,0.2025
1039.00,0.2024
1038.00,0.2018
1037.00,0.2011
1036.00,0.2004
1035.00,0.1998
1034.00,0.1992
1033.00,0.1990
1032.00,0.1990
1031.00,0.1992
1030.00,0.1993
1029.00,0.1992
1028.00,0.1986
1027.00,0.1974
1026.00,0.1954
1025.00,0.1928
1024.00,0.1896
1023.00,0.1860
1022.00,0.1820
1021.00,0.1778
1020.00,0.1736
1019.00,0.1694
1018.00,0.1653
1017.00,0.1614
1016.00,0.1579
1015.00,0.1547
1014.00,0.1520
1013.00,0.1498
1012.00,0.1480
1011.00,0.1468
1010.00,0.1460
1009.00,0.1456
1008.00,0.1456
1007.00,0.1458
1006.00,0.1461
1005.00,0.1462
1004.00,0.1459
1003.00,0.1451
1002.00,0.1435
1001.00,0.1412
1000.00,0.1384
999.00,0.1351
998.00,0.1317
997.00,0.1284
996.00,0.1256
995.00,0.1231
994.00,0.1210
993.00,0.1192
992.00,0.1177
991.00,0.1164
990.00,0.1151
989.00,0.1137
988.00,0.1122
987.00,0.1105
986.00,0.1087
985.00,0.1068
984.00,0.1051
983.00,0.1034
982.00,0.1020
981.00,0.1009
980.00,0.1001
979.00,0.0995
978.00,0.0992
977.00,0.0990
976.00,0.0989
975.00,0.0991
974.00,0.0994
973.00,0.1000
972.00,0.1005
971.00,0.1009
970.00,0.1009
969.00,0.1004
968.00,0.0993
967.00,0.0975
966.00,0.0952
965.00,0.0925
964.00,0.0898
963.00,0.0872
962.00,0.0848
961.00,0.0828
960.00,0.0812
959.00,0.0801
958.00,0.0793
957.00,0.0788
956.00,0.0787
955.00,0.0787
954.00,0.0791
953.00,0.0796
952.00,0.0804
951.00,0.0813
950.00,0.0823
949.00,0.0836
948.00,0.0850
947.00,0.0865
946.00,0.0883
945.00,0.0902
944.00,0.0924
943.00,0.0949
942.00,0.0978
941.00,0.1012
940.00,0.1050
939.00,0.1093
938.00,0.1138
937.00,0.1186
936.00,0.1234
935.00,0.1280
934.00,0.1323
933.00,0.1361
932.00,0.1395
931.00,0.1426
930.00,0.1452
929.00,0.1476
928.00,0.1497
927.00,0.1514
926.00,0.1527
925.00,0.1536
924.00,0.1542
923.00,0.1546
922.00,0.1547
921.00,0.1548
920.00,0.1547
919.00,0.1546
918.00,0.1542
917.00,0.1537
916.00,0.1531
915.00,0.1521
914.00,0.1509
913.00,0.1495
912.00,0.1479
911.00,0.1463
910.00,0.1445
909.00,0.1428
908.00,0.1410
907.00,0.1394
906.00,0.1378
905.00,0.1363
904.00,0.1351
903.00,0.1339
902.00,0.1329
901.00,0.1320
900.00,0.1313
899.00,0.1307
898.00,0.1301
897.00,0.1297
896.00,0.1294
895.00,0.1292
894.00,0.1290
893.00,0.1290
892.00,0.1289
891.00,0.1288
890.00,0.1286
889.00,0.1281
888.00,0.1274
887.00,0.1263
886.00,0.1247
885.00,0.1228
884.00,0.1206
883.00,0.1182
882.00,0.1156
881.00,0.1132
880.00,0.1111
879.00,0.1094
878.00,0.1083
877.00,0.1076
876.00,0.1071
875.00,0.1067
874.00,0.1062
873.00,0.1055
872.00,0.1046
871.00,0.1036
870.00,0.1025
869.00,0.1014
868.00,0.1004
867.00,0.0997
866.00,0.0992
865.00,0.0990
864.00,0.0990
863.00,0.0993
862.00,0.0999
861.00,0.1008
860.00,0.1020
859.00,0.1036
858.00,0.1054
857.00,0.1075
856.00,0.1100
855.00,0.1127
854.00,0.1156
853.00,0.1186
852.00,0.1216
851.00,0.1246
850.00,0.1274
849.00,0.1299
848.00,0.1320
847.00,0.1335
846.00,0.1344
845.00,0.1347
844.00,0.1344
843.00,0.1333
842.00,0.1315
841.00,0.1292
840.00,0.1265
839.00,0.1235
838.00,0.1204
837.00,0.1173
836.00,0.1144
835.00,0.1117
834.00,0.1093
833.00,0.1072
832.00,0.1053
831.00,0.1037
830.00,0.1022
829.00,0.1010
828.00,0.0999
827.00,0.0989
826.00,0.0982
825.00,0.0976
824.00,0.0971
823.00,0.0967
822.00,0.0964
821.00,0.0963
820.00,0.0963
819.00,0.0963
818.00,0.0962
817.00,0.0963
816.00,0.0965
815.00,0.0969
814.00,0.0974
813.00,0.0981
812.00,0.0990
811.00,0.1000
810.00,0.1009
809.00,0.1019
808.00,0.1028
807.00,0.1038
806.00,0.1048
805.00,0.1058
804.00,0.1068
803.00,0.1076
802.00,0.1082
801.00,0.1086
800.00,0.1089
799.00,0.1089
798.00,0.1089
797.00,0.1087
796.00,0.1086
795.00,0.1084
794.00,0.1081
793.00,0.1076
792.00,0.1072
791.00,0.1067
790.00,0.1063
789.00,0.1060
788.00,0.1059
787.00,0.1058
786.00,0.1058
785.00,0.1059
784.00,0.1062
783.00,0.1066
782.00,0.1071
781.00,0.1077
780.00,0.1085
779.00,0.1093
778.00,0.1102
777.00,0.1113
776.00,0.1124
775.00,0.1135
774.00,0.1143
773.00,0.1147
772.00,0.1148
771.00,0.1146
770.00,0.1142
769.00,0.1138
768.00,0.1134
767.00,0.1131
766.00,0.1128
765.00,0.1127
764.00,0.1127
763.00,0.1130
762.00,0.1133
761.00,0.1137
760.00,0.1142
759.00,0.1146
758.00,0.1151
757.00,0.1158
756.00,0.1167
755.00,0.1177
754.00,0.1190
753.00,0.1204
752.00,0.1221
751.00,0.1240
750.00,0.1261
749.00,0.1284
748.00,0.1307
747.00,0.1329
746.00,0.1350
745.00,0.1367
744.00,0.1383
743.00,0.1398
742.00,0.1413
741.00,0.1427
740.00,0.1442
739.00,0.1455
738.00,0.1468
737.00,0.1479
736.00,0.1489
735.00,0.1498
734.00,0.1506
733.00,0.1513
732.00,0.1520
731.00,0.1527
730.00,0.1534
729.00,0.1543
728.00,0.1552
727.00,0.1561
726.00,0.1567
725.00,0.1572
724.00,0.1574
723.00,0.1574
722.00,0.1571
721.00,0.1566
720.00,0.1560
719.00,0.1555
718.00,0.1550
717.00,0.1549
716.00,0.1551
715.00,0.1555
714.00,0.1561
713.00,0.1570
712.00,0.1581
711.00,0.1593
710.00,0.1607
709.00,0.1623
708.00,0.1641
707.00,0.1659
706.00,0.1676
705.00,0.1691
704.00,0.1702
703.00,0.1711
702.00,0.1717
701.00,0.1719
700.00,0.1719
699.00,0.1717
698.00,0.1712
697.00,0.1706
696.00,0.1698
695.00,0.1688
694.00,0.1676
693.00,0.1663
692.00,0.1650
691.00,0.1638
690.00,0.1626
689.00,0.1615
688.00,0.1606
687.00,0.1599
686.00,0.1592
685.00,0.1586
684.00,0.1581
683.00,0.1576
682.00,0.1573
681.00,0.1571
680.00,0.1572
679.00,0.1574
678.00,0.1575
677.00,0.1577
676.00,0.1578
675.00,0.1582
674.00,0.1587
673.00,0.1593
672.00,0.1598
671.00,0.1601
670.00,0.1602
669.00,0.1605
668.00,0.1613
667.00,0.1623
666.00,0.1630
665.00,0.1633
664.00,0.1635
663.00,0.1635
662.00,0.1636
661.00,0.1635
660.00,0.1633
659.00,0.1632
658.00,0.1632
657.00,0.1634
656.00,0.1636
655.00,0.1638
654.00,0.1639
653.00,0.1641
652.00,0.1644
651.00,0.1646
650.00,0.1648
649.00,0.1650
648.00,0.1653
647.00,0.1657
646.00,0.1661
645.00,0.1666
644.00,0.1670
643.00,0.1674
642.00,0.1677
641.00,0.1680
640.00,0.1683
639.00,0.1685
638.00,0.1688
637.00,0.1695
636.00,0.1704
635.00,0.1715
634.00,0.1726
633.00,0.1736
632.00,0.1748
631.00,0.1759
630.00,0.1771
629.00,0.1785
628.00,0.1802
627.00,0.1820
626.00,0.1839
625.00,0.1858
624.00,0.1878
623.00,0.1896
622.00,0.1911
621.00,0.1925
620.00,0.1937
619.00,0.1948
618.00,0.1959
617.00,0.1972
616.00,0.1987
615.00,0.2001
614.00,0.2014
613.00,0.2025
612.00,0.2038
611.00,0.2051
610.00,0.2065
609.00,0.2081
608.00,0.2095
607.00,0.2106
606.00,0.2113
605.00,0.2120
604.00,0.2126
603.00,0.2132
602.00,0.2136
601.00,0.2142
600.00,0.2147
599.00,0.2152
598.00,0.2154
597.00,0.2156
596.00,0.2160
595.00,0.2168
594.00,0.2178
593.00,0.2189
592.00,0.2201
591.00,0.2212
590.00,0.2222
589.00,0.2233
588.00,0.2247
587.00,0.2262
586.00,0.2276
585.00,0.2291
584.00,0.2307
583.00,0.2324
582.00,0.2341
581.00,0.2359
580.00,0.2379
579.00,0.2396
578.00,0.2411
577.00,0.2423
576.00,0.2437
575.00,0.2452
574.00,0.2465
573.00,0.2477
572.00,0.2488
571.00,0.2498
570.00,0.2508
569.00,0.2519
568.00,0.2531
567.00,0.2544
566.00,0.2555
565.00,0.2568
564.00,0.2582
563.00,0.2595
562.00,0.2602
561.00,0.2606
560.00,0.2609
559.00,0.2611
558.00,0.2612
557.00,0.2613
556.00,0.2615
555.00,0.2616
554.00,0.2615
553.00,0.2613
552.00,0.2612
551.00,0.2612
550.00,0.2612
549.00,0.2614
548.00,0.2616
547.00,0.2620
546.00,0.2626
545.00,0.2636
544.00,0.2648
543.00,0.2657
542.00,0.2658
541.00,0.2655
540.00,0.2652
539.00,0.2647
538.00,0.2640
537.00,0.2633
536.00,0.2626
535.00,0.2619
534.00,0.2610
533.00,0.2602
532.00,0.2596
531.00,0.2590
530.00,0.2584
529.00,0.2578
528.00,0.2576
527.00,0.2577
526.00,0.2581
525.00,0.2586
524.00,0.2591
523.00,0.2593
522.00,0.2591
521.00,0.2589
520.00,0.2591
519.00,0.2594
518.00,0.2597
517.00,0.2599
516.00,0.2599
515.00,0.2595
514.00,0.2589
513.00,0.2584
512.00,0.2583
511.00,0.2583
510.00,0.2580
509.00,0.2575
508.00,0.2571
507.00,0.2574
506.00,0.2580
505.00,0.2589
504.00,0.2596
503.00,0.2598
502.00,0.2595
501.00,0.2592
500.00,0.2592
499.00,0.2596
498.00,0.2603
497.00,0.2611
496.00,0.2620
495.00,0.2624
494.00,0.2624
493.00,0.2627
492.00,0.2635
491.00,0.2645
490.00,0.2651
489.00,0.2650
488.00,0.2647
487.00,0.2642
486.00,0.2640
485.00,0.2643
484.00,0.2652
483.00,0.2660
482.00,0.2663
481.00,0.2663
480.00,0.2666
479.00,0.2669
478.00,0.2670
477.00,0.2668
476.00,0.2668
475.00,0.2668
474.00,0.2669
473.00,0.2676
472.00,0.2690
471.00,0.2703
470.00,0.2707
469.00,0.2704
468.00,0.2700
467.00,0.2696
466.00,0.2693
465.00,0.2691
464.00,0.2694
463.00,0.2698
462.00,0.2701
461.00,0.2703
460.00,0.2707
459.00,0.2709
458.00,0.2703
457.00,0.2693
456.00,0.2683
455.00,0.2673
454.00,0.2667
453.00,0.2669
452.00,0.2684
451.00,0.2702
450.00,0.2713
