Created as New Dataset,Sample 006 By Administrator Date Friday, May 30 2025
cm-1,A
4000.00,0.0075
3999.00,0.0075
3998.00,0.0075
3997.00,0.0075
3996.00,0.0075
3995.00,0.0076
3994.00,0.0076
3993.00,0.0076
3992.00,0.0076
3991.00,0.0076
3990.00,0.0076
3989.00,0.0076
3988.00,0.0076
3987.00,0.0076
3986.00,0.0076
3985.00,0.0077
3984.00,0.0077
3983.00,0.0077
3982.00,0.0077
3981.00,0.0076
3980.00,0.0077
3979.00,0.0077
3978.00,0.0077
3977.00,0.0077
3976.00,0.0077
3975.00,0.0077
3974.00,0.0077
3973.00,0.0077
3972.00,0.0077
3971.00,0.0076
3970.00,0.0076
3969.00,0.0076
3968.00,0.0076
3967.00,0.0077
3966.00,0.0077
3965.00,0.0077
3964.00,0.0077
3963.00,0.0077
3962.00,0.0077
3961.00,0.0077
3960.00,0.0077
3959.00,0.0077
3958.00,0.0077
3957.00,0.0078
3956.00,0.0078
3955.00,0.0078
3954.00,0.0078
3953.00,0.0078
3952.00,0.0078
3951.00,0.0078
3950.00,0.0077
3949.00,0.0077
3948.00,0.0077
3947.00,0.0077
3946.00,0.0077
3945.00,0.0078
3944.00,0.0078
3943.00,0.0078
3942.00,0.0077
3941.00,0.0077
3940.00,0.0077
3939.00,0.0077
3938.00,0.0077
3937.00,0.0077
3936.00,0.0078
3935.00,0.0078
3934.00,0.0078
3933.00,0.0078
3932.00,0.0078
3931.00,0.0078
3930.00,0.0078
3929.00,0.0078
3928.00,0.0078
3927.00,0.0078
3926.00,0.0078
3925.00,0.0078
3924.00,0.0077
3923.00,0.0077
3922.00,0.0077
3921.00,0.0077
3920.00,0.0077
3919.00,0.0078
3918.00,0.0078
3917.00,0.0078
3916.00,0.0077
3915.00,0.0077
3914.00,0.0077
3913.00,0.0077
3912.00,0.0077
3911.00,0.0077
3910.00,0.0077
3909.00,0.0077
3908.00,0.0077
3907.00,0.0078
3906.00,0.0078
3905.00,0.0079
3904.00,0.0079
3903.00,0.0080
3902.00,0.0079
3901.00,0.0079
3900.00,0.0078
3899.00,0.0078
3898.00,0.0078
3897.00,0.0078
3896.00,0.0078
3895.00,0.0078
3894.00,0.0078
3893.00,0.0078
3892.00,0.0077
3891.00,0.0077
3890.00,0.0076
3889.00,0.0077
3888.00,0.0077
3887.00,0.0078
3886.00,0.0078
3885.00,0.0078
3884.00,0.0078
3883.00,0.0079
3882.00,0.0078
3881.00,0.0078
3880.00,0.0077
3879.00,0.0077
3878.00,0.0077
3877.00,0.0078
3876.00,0.0079
3875.00,0.0079
3874.00,0.0080
3873.00,0.0080
3872.00,0.0080
3871.00,0.0080
3870.00,0.0079
3869.00,0.0079
3868.00,0.0079
3867.00,0.0079
3866.00,0.0079
3865.00,0.0079
3864.00,0.0079
3863.00,0.0079
3862.00,0.0079
3861.00,0.0080
3860.00,0.0080
3859.00,0.0080
3858.00,0.0080
3857.00,0.0080
3856.00,0.0080
3855.00,0.0080
3854.00,0.0080
3853.00,0.0080
3852.00,0.0079
3851.00,0.0079
3850.00,0.0079
3849.00,0.0079
3848.00,0.0079
3847.00,0.0079
3846.00,0.0079
3845.00,0.0079
3844.00,0.0080
3843.00,0.0080
3842.00,0.0079
3841.00,0.0079
3840.00,0.0079
3839.00,0.0079
3838.00,0.0080
3837.00,0.0080
3836.00,0.0081
3835.00,0.0081
3834.00,0.0081
3833.00,0.0080
3832.00,0.0080
3831.00,0.0080
3830.00,0.0080
3829.00,0.0080
3828.00,0.0080
3827.00,0.0079
3826.00,0.0079
3825.00,0.0080
3824.00,0.0081
3823.00,0.0081
3822.00,0.0082
3821.00,0.0081
3820.00,0.0081
3819.00,0.0082
3818.00,0.0082
3817.00,0.0082
3816.00,0.0082
3815.00,0.0081
3814.00,0.0081
3813.00,0.0082
3812.00,0.0082
3811.00,0.0082
3810.00,0.0082
3809.00,0.0082
3808.00,0.0082
3807.00,0.0082
3806.00,0.0082
3805.00,0.0082
3804.00,0.0083
3803.00,0.0083
3802.00,0.0084
3801.00,0.0083
3800.00,0.0083
3799.00,0.0083
3798.00,0.0083
3797.00,0.0082
3796.00,0.0082
3795.00,0.0082
3794.00,0.0082
3793.00,0.0082
3792.00,0.0082
3791.00,0.0082
3790.00,0.0082
3789.00,0.0082
3788.00,0.0083
3787.00,0.0084
3786.00,0.0084
3785.00,0.0084
3784.00,0.0084
3783.00,0.0084
3782.00,0.0085
3781.00,0.0085
3780.00,0.0085
3779.00,0.0084
3778.00,0.0084
3777.00,0.0084
3776.00,0.0085
3775.00,0.0085
3774.00,0.0086
3773.00,0.0086
3772.00,0.0087
3771.00,0.0087
3770.00,0.0087
3769.00,0.0087
3768.00,0.0087
3767.00,0.0087
3766.00,0.0087
3765.00,0.0087
3764.00,0.0088
3763.00,0.0089
3762.00,0.0089
3761.00,0.0090
3760.00,0.0090
3759.00,0.0090
3758.00,0.0090
3757.00,0.0090
3756.00,0.0090
3755.00,0.0091
3754.00,0.0091
3753.00,0.0092
3752.00,0.0092
3751.00,0.0093
3750.00,0.0093
3749.00,0.0093
3748.00,0.0093
3747.00,0.0093
3746.00,0.0092
3745.00,0.0092
3744.00,0.0092
3743.00,0.0092
3742.00,0.0093
3741.00,0.0094
3740.00,0.0093
3739.00,0.0093
3738.00,0.0093
3737.00,0.0094
3736.00,0.0094
3735.00,0.0094
3734.00,0.0094
3733.00,0.0094
3732.00,0.0095
3731.00,0.0095
3730.00,0.0096
3729.00,0.0096
3728.00,0.0097
3727.00,0.0097
3726.00,0.0097
3725.00,0.0098
3724.00,0.0098
3723.00,0.0099
3722.00,0.0100
3721.00,0.0101
3720.00,0.0102
3719.00,0.0103
3718.00,0.0104
3717.00,0.0105
3716.00,0.0106
3715.00,0.0107
3714.00,0.0108
3713.00,0.0110
3712.00,0.0111
3711.00,0.0112
3710.00,0.0113
3709.00,0.0113
3708.00,0.0113
3707.00,0.0114
3706.00,0.0115
3705.00,0.0116
3704.00,0.0117
3703.00,0.0118
3702.00,0.0119
3701.00,0.0120
3700.00,0.0122
3699.00,0.0124
3698.00,0.0125
3697.00,0.0127
3696.00,0.0129
3695.00,0.0130
3694.00,0.0132
3693.00,0.0134
3692.00,0.0135
3691.00,0.0137
3690.00,0.0139
3689.00,0.0141
3688.00,0.0143
3687.00,0.0146
3686.00,0.0148
3685.00,0.0151
3684.00,0.0153
3683.00,0.0155
3682.00,0.0158
3681.00,0.0160
3680.00,0.0162
3679.00,0.0164
3678.00,0.0167
3677.00,0.0169
3676.00,0.0173
3675.00,0.0176
3674.00,0.0180
3673.00,0.0184
3672.00,0.0188
3671.00,0.0192
3670.00,0.0196
3669.00,0.0200
3668.00,0.0205
3667.00,0.0209
3666.00,0.0212
3665.00,0.0216
3664.00,0.0220
3663.00,0.0225
3662.00,0.0230
3661.00,0.0235
3660.00,0.0240
3659.00,0.0245
3658.00,0.0251
3657.00,0.0256
3656.00,0.0262
3655.00,0.0268
3654.00,0.0273
3653.00,0.0278
3652.00,0.0283
3651.00,0.0290
3650.00,0.0298
3649.00,0.0307
3648.00,0.0315
3647.00,0.0323
3646.00,0.0329
3645.00,0.0334
3644.00,0.0340
3643.00,0.0346
3642.00,0.0352
3641.00,0.0358
3640.00,0.0365
3639.00,0.0372
3638.00,0.0379
3637.00,0.0386
3636.00,0.0393
3635.00,0.0400
3634.00,0.0407
3633.00,0.0413
3632.00,0.0420
3631.00,0.0427
3630.00,0.0436
3629.00,0.0446
3628.00,0.0457
3627.00,0.0466
3626.00,0.0473
3625.00,0.0480
3624.00,0.0486
3623.00,0.0492
3622.00,0.0498
3621.00,0.0506
3620.00,0.0514
3619.00,0.0523
3618.00,0.0531
3617.00,0.0539
3616.00,0.0547
3615.00,0.0554
3614.00,0.0562
3613.00,0.0569
3612.00,0.0577
3611.00,0.0585
3610.00,0.0593
3609.00,0.0602
3608.00,0.0611
3607.00,0.0619
3606.00,0.0627
3605.00,0.0634
3604.00,0.0640
3603.00,0.0646
3602.00,0.0653
3601.00,0.0661
3600.00,0.0669
3599.00,0.0677
3598.00,0.0685
3597.00,0.0693
3596.00,0.0700
3595.00,0.0708
3594.00,0.0716
3593.00,0.0723
3592.00,0.0730
3591.00,0.0735
3590.00,0.0742
3589.00,0.0749
3588.00,0.0758
3587.00,0.0768
3586.00,0.0777
3585.00,0.0785
3584.00,0.0792
3583.00,0.0798
3582.00,0.0804
3581.00,0.0811
3580.00,0.0817
3579.00,0.0824
3578.00,0.0832
3577.00,0.0839
3576.00,0.0847
3575.00,0.0853
3574.00,0.0860
3573.00,0.0867
3572.00,0.0873
3571.00,0.0878
3570.00,0.0884
3569.00,0.0891
3568.00,0.0899
3567.00,0.0909
3566.00,0.0919
3565.00,0.0927
3564.00,0.0935
3563.00,0.0942
3562.00,0.0949
3561.00,0.0955
3560.00,0.0961
3559.00,0.0967
3558.00,0.0973
3557.00,0.0980
3556.00,0.0986
3555.00,0.0992
3554.00,0.0999
3553.00,0.1007
3552.00,0.1014
3551.00,0.1022
3550.00,0.1029
3549.00,0.1035
3548.00,0.1042
3547.00,0.1049
3546.00,0.1056
3545.00,0.1063
3544.00,0.1071
3543.00,0.1077
3542.00,0.1083
3541.00,0.1090
3540.00,0.1096
3539.00,0.1102
3538.00,0.1109
3537.00,0.1115
3536.00,0.1122
3535.00,0.1127
3534.00,0.1134
3533.00,0.1140
3532.00,0.1146
3531.00,0.1153
3530.00,0.1160
3529.00,0.1167
3528.00,0.1174
3527.00,0.1181
3526.00,0.1189
3525.00,0.1196
3524.00,0.1203
3523.00,0.1210
3522.00,0.1217
3521.00,0.1223
3520.00,0.1230
3519.00,0.1236
3518.00,0.1242
3517.00,0.1249
3516.00,0.1255
3515.00,0.1261
3514.00,0.1267
3513.00,0.1274
3512.00,0.1280
3511.00,0.1286
3510.00,0.1293
3509.00,0.1299
3508.00,0.1306
3507.00,0.1312
3506.00,0.1318
3505.00,0.1325
3504.00,0.1332
3503.00,0.1339
3502.00,0.1347
3501.00,0.1354
3500.00,0.1360
3499.00,0.1366
3498.00,0.1372
3497.00,0.1378
3496.00,0.1385
3495.00,0.1391
3494.00,0.1397
3493.00,0.1403
3492.00,0.1409
3491.00,0.1415
3490.00,0.1421
3489.00,0.1428
3488.00,0.1434
3487.00,0.1441
3486.00,0.1447
3485.00,0.1453
3484.00,0.1459
3483.00,0.1466
3482.00,0.1472
3481.00,0.1479
3480.00,0.1485
3479.00,0.1491
3478.00,0.1496
3477.00,0.1502
3476.00,0.1507
3475.00,0.1512
3474.00,0.1518
3473.00,0.1524
3472.00,0.1530
3471.00,0.1537
3470.00,0.1544
3469.00,0.1551
3468.00,0.1557
3467.00,0.1562
3466.00,0.1567
3465.00,0.1572
3464.00,0.1577
3463.00,0.1583
3462.00,0.1589
3461.00,0.1595
3460.00,0.1601
3459.00,0.1606
3458.00,0.1611
3457.00,0.1615
3456.00,0.1620
3455.00,0.1625
3454.00,0.1630
3453.00,0.1635
3452.00,0.1640
3451.00,0.1646
3450.00,0.1651
3449.00,0.1656
3448.00,0.1660
3447.00,0.1665
3446.00,0.1670
3445.00,0.1675
3444.00,0.1680
3443.00,0.1686
3442.00,0.1691
3441.00,0.1696
3440.00,0.1701
3439.00,0.1706
3438.00,0.1711
3437.00,0.1715
3436.00,0.1720
3435.00,0.1724
3434.00,0.1728
3433.00,0.1733
3432.00,0.1737
3431.00,0.1741
3430.00,0.1745
3429.00,0.1748
3428.00,0.1751
3427.00,0.1754
3426.00,0.1757
3425.00,0.1760
3424.00,0.1763
3423.00,0.1766
3422.00,0.1770
3421.00,0.1773
3420.00,0.1776
3419.00,0.1780
3418.00,0.1783
3417.00,0.1786
3416.00,0.1790
3415.00,0.1793
3414.00,0.1796
3413.00,0.1798
3412.00,0.1801
3411.00,0.1803
3410.00,0.1805
3409.00,0.1807
3408.00,0.1809
3407.00,0.1811
3406.00,0.1813
3405.00,0.1816
3404.00,0.1818
3403.00,0.1820
3402.00,0.1822
3401.00,0.1823
3400.00,0.1824
3399.00,0.1825
3398.00,0.1826
3397.00,0.1827
3396.00,0.1828
3395.00,0.1829
3394.00,0.1830
3393.00,0.1830
3392.00,0.1831
3391.00,0.1830
3390.00,0.1830
3389.00,0.1829
3388.00,0.1829
3387.00,0.1828
3386.00,0.1828
3385.00,0.1827
3384.00,0.1827
3383.00,0.1827
3382.00,0.1826
3381.00,0.1826
3380.00,0.1825
3379.00,0.1824
3378.00,0.1822
3377.00,0.1821
3376.00,0.1820
3375.00,0.1819
3374.00,0.1817
3373.00,0.1816
3372.00,0.1815
3371.00,0.1814
3370.00,0.1812
3369.00,0.1810
3368.00,0.1808
3367.00,0.1805
3366.00,0.1802
3365.00,0.1799
3364.00,0.1796
3363.00,0.1793
3362.00,0.1790
3361.00,0.1787
3360.00,0.1784
3359.00,0.1780
3358.00,0.1777
3357.00,0.1774
3356.00,0.1771
3355.00,0.1768
3354.00,0.1764
3353.00,0.1761
3352.00,0.1758
3351.00,0.1755
3350.00,0.1751
3349.00,0.1747
3348.00,0.1743
3347.00,0.1739
3346.00,0.1735
3345.00,0.1731
3344.00,0.1727
3343.00,0.1723
3342.00,0.1720
3341.00,0.1716
3340.00,0.1711
3339.00,0.1707
3338.00,0.1702
3337.00,0.1698
3336.00,0.1693
3335.00,0.1688
3334.00,0.1684
3333.00,0.1679
3332.00,0.1674
3331.00,0.1669
3330.00,0.1665
3329.00,0.1660
3328.00,0.1656
3327.00,0.1652
3326.00,0.1647
3325.00,0.1642
3324.00,0.1637
3323.00,0.1632
3322.00,0.1627
3321.00,0.1622
3320.00,0.1617
3319.00,0.1613
3318.00,0.1608
3317.00,0.1603
3316.00,0.1598
3315.00,0.1593
3314.00,0.1589
3313.00,0.1585
3312.00,0.1580
3311.00,0.1576
3310.00,0.1572
3309.00,0.1568
3308.00,0.1564
3307.00,0.1559
3306.00,0.1555
3305.00,0.1550
3304.00,0.1546
3303.00,0.1541
3302.00,0.1537
3301.00,0.1532
3300.00,0.1528
3299.00,0.1524
3298.00,0.1520
3297.00,0.1516
3296.00,0.1512
3295.00,0.1508
3294.00,0.1504
3293.00,0.1500
3292.00,0.1496
3291.00,0.1491
3290.00,0.1487
3289.00,0.1483
3288.00,0.1479
3287.00,0.1474
3286.00,0.1470
3285.00,0.1466
3284.00,0.1462
3283.00,0.1457
3282.00,0.1453
3281.00,0.1449
3280.00,0.1445
3279.00,0.1441
3278.00,0.1437
3277.00,0.1433
3276.00,0.1429
3275.00,0.1425
3274.00,0.1421
3273.00,0.1417
3272.00,0.1413
3271.00,0.1408
3270.00,0.1404
3269.00,0.1400
3268.00,0.1395
3267.00,0.1391
3266.00,0.1387
3265.00,0.1382
3264.00,0.1378
3263.00,0.1374
3262.00,0.1369
3261.00,0.1365
3260.00,0.1361
3259.00,0.1356
3258.00,0.1352
3257.00,0.1347
3256.00,0.1343
3255.00,0.1338
3254.00,0.1333
3253.00,0.1328
3252.00,0.1323
3251.00,0.1319
3250.00,0.1314
3249.00,0.1309
3248.00,0.1304
3247.00,0.1299
3246.00,0.1294
3245.00,0.1289
3244.00,0.1284
3243.00,0.1279
3242.00,0.1273
3241.00,0.1268
3240.00,0.1262
3239.00,0.1257
3238.00,0.1251
3237.00,0.1246
3236.00,0.1241
3235.00,0.1235
3234.00,0.1229
3233.00,0.1223
3232.00,0.1218
3231.00,0.1211
3230.00,0.1205
3229.00,0.1199
3228.00,0.1192
3227.00,0.1186
3226.00,0.1180
3225.00,0.1174
3224.00,0.1168
3223.00,0.1162
3222.00,0.1156
3221.00,0.1150
3220.00,0.1144
3219.00,0.1138
3218.00,0.1131
3217.00,0.1124
3216.00,0.1118
3215.00,0.1111
3214.00,0.1105
3213.00,0.1098
3212.00,0.1092
3211.00,0.1086
3210.00,0.1079
3209.00,0.1072
3208.00,0.1065
3207.00,0.1057
3206.00,0.1050
3205.00,0.1043
3204.00,0.1036
3203.00,0.1029
3202.00,0.1022
3201.00,0.1016
3200.00,0.1009
3199.00,0.1003
3198.00,0.0996
3197.00,0.0989
3196.00,0.0982
3195.00,0.0975
3194.00,0.0968
3193.00,0.0961
3192.00,0.0954
3191.00,0.0947
3190.00,0.0940
3189.00,0.0933
3188.00,0.0926
3187.00,0.0919
3186.00,0.0912
3185.00,0.0905
3184.00,0.0898
3183.00,0.0891
3182.00,0.0885
3181.00,0.0878
3180.00,0.0871
3179.00,0.0865
3178.00,0.0859
3177.00,0.0852
3176.00,0.0846
3175.00,0.0840
3174.00,0.0833
3173.00,0.0827
3172.00,0.0821
3171.00,0.0814
3170.00,0.0807
3169.00,0.0800
3168.00,0.0793
3167.00,0.0787
3166.00,0.0780
3165.00,0.0774
3164.00,0.0768
3163.00,0.0762
3162.00,0.0756
3161.00,0.0750
3160.00,0.0744
3159.00,0.0738
3158.00,0.0732
3157.00,0.0727
3156.00,0.0721
3155.00,0.0715
3154.00,0.0709
3153.00,0.0703
3152.00,0.0698
3151.00,0.0692
3150.00,0.0686
3149.00,0.0680
3148.00,0.0675
3147.00,0.0669
3146.00,0.0664
3145.00,0.0659
3144.00,0.0653
3143.00,0.0647
3142.00,0.0642
3141.00,0.0636
3140.00,0.0631
3139.00,0.0626
3138.00,0.0621
3137.00,0.0616
3136.00,0.0611
3135.00,0.0606
3134.00,0.0601
3133.00,0.0595
3132.00,0.0590
3131.00,0.0585
3130.00,0.0581
3129.00,0.0576
3128.00,0.0572
3127.00,0.0567
3126.00,0.0563
3125.00,0.0558
3124.00,0.0554
3123.00,0.0550
3122.00,0.0545
3121.00,0.0541
3120.00,0.0536
3119.00,0.0531
3118.00,0.0527
3117.00,0.0523
3116.00,0.0518
3115.00,0.0514
3114.00,0.0510
3113.00,0.0506
3112.00,0.0502
3111.00,0.0498
3110.00,0.0494
3109.00,0.0491
3108.00,0.0488
3107.00,0.0484
3106.00,0.0480
3105.00,0.0476
3104.00,0.0472
3103.00,0.0468
3102.00,0.0464
3101.00,0.0460
3100.00,0.0457
3099.00,0.0453
3098.00,0.0449
3097.00,0.0445
3096.00,0.0442
3095.00,0.0439
3094.00,0.0436
3093.00,0.0433
3092.00,0.0429
3091.00,0.0426
3090.00,0.0422
3089.00,0.0419
3088.00,0.0416
3087.00,0.0413
3086.00,0.0410
3085.00,0.0407
3084.00,0.0404
3083.00,0.0401
3082.00,0.0398
3081.00,0.0395
3080.00,0.0392
3079.00,0.0389
3078.00,0.0386
3077.00,0.0383
3076.00,0.0380
3075.00,0.0377
3074.00,0.0374
3073.00,0.0371
3072.00,0.0369
3071.00,0.0366
3070.00,0.0364
3069.00,0.0361
3068.00,0.0358
3067.00,0.0356
3066.00,0.0353
3065.00,0.0351
3064.00,0.0348
3063.00,0.0345
3062.00,0.0343
3061.00,0.0341
3060.00,0.0338
3059.00,0.0336
3058.00,0.0333
3057.00,0.0330
3056.00,0.0328
3055.00,0.0326
3054.00,0.0324
3053.00,0.0321
3052.00,0.0319
3051.00,0.0317
3050.00,0.0315
3049.00,0.0313
3048.00,0.0311
3047.00,0.0309
3046.00,0.0306
3045.00,0.0304
3044.00,0.0302
3043.00,0.0300
3042.00,0.0298
3041.00,0.0296
3040.00,0.0295
3039.00,0.0293
3038.00,0.0291
3037.00,0.0289
3036.00,0.0288
3035.00,0.0286
3034.00,0.0284
3033.00,0.0283
3032.00,0.0281
3031.00,0.0279
3030.00,0.0278
3029.00,0.0276
3028.00,0.0275
3027.00,0.0274
3026.00,0.0272
3025.00,0.0271
3024.00,0.0269
3023.00,0.0267
3022.00,0.0266
3021.00,0.0264
3020.00,0.0263
3019.00,0.0261
3018.00,0.0260
3017.00,0.0259
3016.00,0.0258
3015.00,0.0257
3014.00,0.0256
3013.00,0.0256
3012.00,0.0255
3011.00,0.0254
3010.00,0.0253
3009.00,0.0252
3008.00,0.0251
3007.00,0.0250
3006.00,0.0249
3005.00,0.0248
3004.00,0.0247
3003.00,0.0246
3002.00,0.0246
3001.00,0.0245
3000.00,0.0244
2999.00,0.0244
2998.00,0.0244
2997.00,0.0244
2996.00,0.0243
2995.00,0.0243
2994.00,0.0242
2993.00,0.0242
2992.00,0.0242
2991.00,0.0242
2990.00,0.0242
2989.00,0.0242
2988.00,0.0242
2987.00,0.0243
2986.00,0.0243
2985.00,0.0243
2984.00,0.0243
2983.00,0.0244
2982.00,0.0244
2981.00,0.0245
2980.00,0.0245
2979.00,0.0246
2978.00,0.0246
2977.00,0.0247
2976.00,0.0248
2975.00,0.0248
2974.00,0.0249
2973.00,0.0250
2972.00,0.0251
2971.00,0.0251
2970.00,0.0252
2969.00,0.0253
2968.00,0.0253
2967.00,0.0254
2966.00,0.0254
2965.00,0.0254
2964.00,0.0255
2963.00,0.0255
2962.00,0.0256
2961.00,0.0256
2960.00,0.0257
2959.00,0.0258
2958.00,0.0259
2957.00,0.0259
2956.00,0.0259
2955.00,0.0259
2954.00,0.0259
2953.00,0.0259
2952.00,0.0259
2951.00,0.0258
2950.00,0.0257
2949.00,0.0257
2948.00,0.0257
2947.00,0.0257
2946.00,0.0256
2945.00,0.0257
2944.00,0.0257
2943.00,0.0258
2942.00,0.0260
2941.00,0.0261
2940.00,0.0262
2939.00,0.0263
2938.00,0.0264
2937.00,0.0265
2936.00,0.0267
2935.00,0.0269
2934.00,0.0271
2933.00,0.0272
2932.00,0.0274
2931.00,0.0276
2930.00,0.0278
2929.00,0.0280
2928.00,0.0282
2927.00,0.0284
2926.00,0.0286
2925.00,0.0288
2924.00,0.0290
2923.00,0.0292
2922.00,0.0293
2921.00,0.0294
2920.00,0.0295
2919.00,0.0294
2918.00,0.0293
2917.00,0.0290
2916.00,0.0287
2915.00,0.0283
2914.00,0.0278
2913.00,0.0274
2912.00,0.0269
2911.00,0.0265
2910.00,0.0262
2909.00,0.0259
2908.00,0.0256
2907.00,0.0253
2906.00,0.0251
2905.00,0.0248
2904.00,0.0246
2903.00,0.0244
2902.00,0.0241
2901.00,0.0240
2900.00,0.0238
2899.00,0.0236
2898.00,0.0234
2897.00,0.0232
2896.00,0.0230
2895.00,0.0228
2894.00,0.0226
2893.00,0.0224
2892.00,0.0222
2891.00,0.0220
2890.00,0.0218
2889.00,0.0217
2888.00,0.0215
2887.00,0.0214
2886.00,0.0212
2885.00,0.0211
2884.00,0.0209
2883.00,0.0208
2882.00,0.0206
2881.00,0.0205
2880.00,0.0204
2879.00,0.0203
2878.00,0.0203
2877.00,0.0202
2876.00,0.0200
2875.00,0.0199
2874.00,0.0198
2873.00,0.0197
2872.00,0.0196
2871.00,0.0195
2870.00,0.0194
2869.00,0.0193
2868.00,0.0193
2867.00,0.0192
2866.00,0.0191
2865.00,0.0191
2864.00,0.0190
2863.00,0.0189
2862.00,0.0189
2861.00,0.0190
2860.00,0.0191
2859.00,0.0192
2858.00,0.0193
2857.00,0.0194
2856.00,0.0195
2855.00,0.0197
2854.00,0.0199
2853.00,0.0200
2852.00,0.0201
2851.00,0.0200
2850.00,0.0198
2849.00,0.0196
2848.00,0.0192
2847.00,0.0187
2846.00,0.0182
2845.00,0.0177
2844.00,0.0173
2843.00,0.0168
2842.00,0.0165
2841.00,0.0162
2840.00,0.0159
2839.00,0.0157
2838.00,0.0155
2837.00,0.0153
2836.00,0.0151
2835.00,0.0150
2834.00,0.0149
2833.00,0.0148
2832.00,0.0147
2831.00,0.0147
2830.00,0.0146
2829.00,0.0144
2828.00,0.0143
2827.00,0.0143
2826.00,0.0142
2825.00,0.0141
2824.00,0.0140
2823.00,0.0140
2822.00,0.0139
2821.00,0.0138
2820.00,0.0137
2819.00,0.0137
2818.00,0.0136
2817.00,0.0135
2816.00,0.0135
2815.00,0.0134
2814.00,0.0134
2813.00,0.0133
2812.00,0.0133
2811.00,0.0132
2810.00,0.0132
2809.00,0.0131
2808.00,0.0130
2807.00,0.0130
2806.00,0.0129
2805.00,0.0129
2804.00,0.0129
2803.00,0.0128
2802.00,0.0128
2801.00,0.0127
2800.00,0.0127
2799.00,0.0127
2798.00,0.0127
2797.00,0.0127
2796.00,0.0126
2795.00,0.0126
2794.00,0.0125
2793.00,0.0125
2792.00,0.0124
2791.00,0.0124
2790.00,0.0123
2789.00,0.0123
2788.00,0.0123
2787.00,0.0122
2786.00,0.0122
2785.00,0.0122
2784.00,0.0122
2783.00,0.0121
2782.00,0.0121
2781.00,0.0120
2780.00,0.0120
2779.00,0.0119
2778.00,0.0119
2777.00,0.0119
2776.00,0.0118
2775.00,0.0118
2774.00,0.0118
2773.00,0.0118
2772.00,0.0117
2771.00,0.0117
2770.00,0.0116
2769.00,0.0116
2768.00,0.0116
2767.00,0.0116
2766.00,0.0116
2765.00,0.0116
2764.00,0.0115
2763.00,0.0115
2762.00,0.0114
2761.00,0.0114
2760.00,0.0113
2759.00,0.0113
2758.00,0.0113
2757.00,0.0113
2756.00,0.0113
2755.00,0.0113
2754.00,0.0113
2753.00,0.0113
2752.00,0.0113
2751.00,0.0112
2750.00,0.0112
2749.00,0.0112
2748.00,0.0112
2747.00,0.0112
2746.00,0.0112
2745.00,0.0112
2744.00,0.0111
2743.00,0.0111
2742.00,0.0111
2741.00,0.0110
2740.00,0.0110
2739.00,0.0110
2738.00,0.0110
2737.00,0.0110
2736.00,0.0110
2735.00,0.0110
2734.00,0.0110
2733.00,0.0110
2732.00,0.0110
2731.00,0.0110
2730.00,0.0109
2729.00,0.0109
2728.00,0.0108
2727.00,0.0108
2726.00,0.0108
2725.00,0.0108
2724.00,0.0108
2723.00,0.0108
2722.00,0.0108
2721.00,0.0108
2720.00,0.0107
2719.00,0.0107
2718.00,0.0107
2717.00,0.0107
2716.00,0.0106
2715.00,0.0106
2714.00,0.0105
2713.00,0.0106
2712.00,0.0106
2711.00,0.0106
2710.00,0.0105
2709.00,0.0105
2708.00,0.0105
2707.00,0.0105
2706.00,0.0105
2705.00,0.0105
2704.00,0.0104
2703.00,0.0104
2702.00,0.0104
2701.00,0.0104
2700.00,0.0104
2699.00,0.0104
2698.00,0.0104
2697.00,0.0103
2696.00,0.0104
2695.00,0.0104
2694.00,0.0104
2693.00,0.0104
2692.00,0.0103
2691.00,0.0103
2690.00,0.0103
2689.00,0.0103
2688.00,0.0103
2687.00,0.0103
2686.00,0.0103
2685.00,0.0103
2684.00,0.0102
2683.00,0.0102
2682.00,0.0102
2681.00,0.0102
2680.00,0.0102
2679.00,0.0102
2678.00,0.0102
2677.00,0.0102
2676.00,0.0102
2675.00,0.0101
2674.00,0.0101
2673.00,0.0101
2672.00,0.0101
2671.00,0.0101
2670.00,0.0101
2669.00,0.0101
2668.00,0.0101
2667.00,0.0101
2666.00,0.0101
2665.00,0.0101
2664.00,0.0101
2663.00,0.0102
2662.00,0.0103
2661.00,0.0104
2660.00,0.0104
2659.00,0.0104
2658.00,0.0104
2657.00,0.0104
2656.00,0.0104
2655.00,0.0105
2654.00,0.0105
2653.00,0.0105
2652.00,0.0105
2651.00,0.0104
2650.00,0.0104
2649.00,0.0103
2648.00,0.0103
2647.00,0.0103
2646.00,0.0103
2645.00,0.0103
2644.00,0.0102
2643.00,0.0102
2642.00,0.0102
2641.00,0.0101
2640.00,0.0101
2639.00,0.0101
2638.00,0.0100
2637.00,0.0100
2636.00,0.0100
2635.00,0.0100
2634.00,0.0100
2633.00,0.0100
2632.00,0.0100
2631.00,0.0099
2630.00,0.0099
2629.00,0.0098
2628.00,0.0098
2627.00,0.0098
2626.00,0.0097
2625.00,0.0097
2624.00,0.0097
2623.00,0.0097
2622.00,0.0097
2621.00,0.0096
2620.00,0.0096
2619.00,0.0096
2618.00,0.0095
2617.00,0.0095
2616.00,0.0094
2615.00,0.0094
2614.00,0.0094
2613.00,0.0094
2612.00,0.0094
2611.00,0.0094
2610.00,0.0093
2609.00,0.0093
2608.00,0.0093
2607.00,0.0092
2606.00,0.0092
2605.00,0.0091
2604.00,0.0091
2603.00,0.0090
2602.00,0.0090
2601.00,0.0090
2600.00,0.0090
2599.00,0.0091
2598.00,0.0091
2597.00,0.0090
2596.00,0.0090
2595.00,0.0090
2594.00,0.0090
2593.00,0.0090
2592.00,0.0090
2591.00,0.0089
2590.00,0.0089
2589.00,0.0089
2588.00,0.0089
2587.00,0.0089
2586.00,0.0089
2585.00,0.0090
2584.00,0.0089
2583.00,0.0089
2582.00,0.0088
2581.00,0.0087
2580.00,0.0087
2579.00,0.0087
2578.00,0.0087
2577.00,0.0087
2576.00,0.0087
2575.00,0.0088
2574.00,0.0088
2573.00,0.0087
2572.00,0.0086
2571.00,0.0086
2570.00,0.0085
2569.00,0.0084
2568.00,0.0085
2567.00,0.0085
2566.00,0.0085
2565.00,0.0086
2564.00,0.0086
2563.00,0.0086
2562.00,0.0086
2561.00,0.0085
2560.00,0.0084
2559.00,0.0084
2558.00,0.0084
2557.00,0.0085
2556.00,0.0085
2555.00,0.0085
2554.00,0.0085
2553.00,0.0085
2552.00,0.0085
2551.00,0.0085
2550.00,0.0084
2549.00,0.0084
2548.00,0.0084
2547.00,0.0084
2546.00,0.0084
2545.00,0.0083
2544.00,0.0083
2543.00,0.0083
2542.00,0.0083
2541.00,0.0083
2540.00,0.0083
2539.00,0.0083
2538.00,0.0083
2537.00,0.0082
2536.00,0.0082
2535.00,0.0082
2534.00,0.0083
2533.00,0.0083
2532.00,0.0084
2531.00,0.0084
2530.00,0.0084
2529.00,0.0084
2528.00,0.0083
2527.00,0.0082
2526.00,0.0082
2525.00,0.0082
2524.00,0.0083
2523.00,0.0083
2522.00,0.0083
2521.00,0.0083
2520.00,0.0082
2519.00,0.0082
2518.00,0.0082
2517.00,0.0083
2516.00,0.0083
2515.00,0.0083
2514.00,0.0083
2513.00,0.0082
2512.00,0.0082
2511.00,0.0081
2510.00,0.0081
2509.00,0.0081
2508.00,0.0081
2507.00,0.0082
2506.00,0.0082
2505.00,0.0082
2504.00,0.0082
2503.00,0.0081
2502.00,0.0081
2501.00,0.0081
2500.00,0.0081
2499.00,0.0081
2498.00,0.0081
2497.00,0.0082
2496.00,0.0082
2495.00,0.0082
2494.00,0.0083
2493.00,0.0083
2492.00,0.0083
2491.00,0.0082
2490.00,0.0081
2489.00,0.0081
2488.00,0.0080
2487.00,0.0080
2486.00,0.0079
2485.00,0.0079
2484.00,0.0079
2483.00,0.0079
2482.00,0.0079
2481.00,0.0079
2480.00,0.0079
2479.00,0.0080
2478.00,0.0080
2477.00,0.0080
2476.00,0.0081
2475.00,0.0081
2474.00,0.0080
2473.00,0.0080
2472.00,0.0080
2471.00,0.0079
2470.00,0.0079
2469.00,0.0079
2468.00,0.0079
2467.00,0.0080
2466.00,0.0080
2465.00,0.0081
2464.00,0.0082
2463.00,0.0082
2462.00,0.0082
2461.00,0.0082
2460.00,0.0082
2459.00,0.0082
2458.00,0.0081
2457.00,0.0081
2456.00,0.0081
2455.00,0.0081
2454.00,0.0081
2453.00,0.0082
2452.00,0.0082
2451.00,0.0083
2450.00,0.0083
2449.00,0.0082
2448.00,0.0082
2447.00,0.0081
2446.00,0.0080
2445.00,0.0080
2444.00,0.0080
2443.00,0.0080
2442.00,0.0080
2441.00,0.0080
2440.00,0.0081
2439.00,0.0081
2438.00,0.0081
2437.00,0.0080
2436.00,0.0080
2435.00,0.0080
2434.00,0.0080
2433.00,0.0079
2432.00,0.0079
2431.00,0.0080
2430.00,0.0080
2429.00,0.0081
2428.00,0.0081
2427.00,0.0080
2426.00,0.0080
2425.00,0.0080
2424.00,0.0080
2423.00,0.0080
2422.00,0.0081
2421.00,0.0081
2420.00,0.0081
2419.00,0.0080
2418.00,0.0080
2417.00,0.0079
2416.00,0.0079
2415.00,0.0079
2414.00,0.0080
2413.00,0.0080
2412.00,0.0081
2411.00,0.0082
2410.00,0.0082
2409.00,0.0082
2408.00,0.0081
2407.00,0.0081
2406.00,0.0080
2405.00,0.0079
2404.00,0.0079
2403.00,0.0080
2402.00,0.0080
2401.00,0.0080
2400.00,0.0080
2399.00,0.0080
2398.00,0.0080
2397.00,0.0080
2396.00,0.0080
2395.00,0.0080
2394.00,0.0081
2393.00,0.0081
2392.00,0.0081
2391.00,0.0081
2390.00,0.0081
2389.00,0.0080
2388.00,0.0080
2387.00,0.0079
2386.00,0.0079
2385.00,0.0079
2384.00,0.0078
2383.00,0.0078
2382.00,0.0077
2381.00,0.0076
2380.00,0.0075
2379.00,0.0074
2378.00,0.0074
2377.00,0.0074
2376.00,0.0075
2375.00,0.0076
2374.00,0.0077
2373.00,0.0077
2372.00,0.0076
2371.00,0.0075
2370.00,0.0075
2369.00,0.0074
2368.00,0.0074
2367.00,0.0073
2366.00,0.0073
2365.00,0.0073
2364.00,0.0075
2363.00,0.0076
2362.00,0.0078
2361.00,0.0079
2360.00,0.0079
2359.00,0.0079
2358.00,0.0080
2357.00,0.0080
2356.00,0.0082
2355.00,0.0083
2354.00,0.0082
2353.00,0.0082
2352.00,0.0082
2351.00,0.0082
2350.00,0.0083
2349.00,0.0083
2348.00,0.0085
2347.00,0.0085
2346.00,0.0086
2345.00,0.0087
2344.00,0.0087
2343.00,0.0088
2342.00,0.0088
2341.00,0.0089
2340.00,0.0090
2339.00,0.0091
2338.00,0.0092
2337.00,0.0092
2336.00,0.0092
2335.00,0.0093
2334.00,0.0093
2333.00,0.0093
2332.00,0.0093
2331.00,0.0094
2330.00,0.0094
2329.00,0.0095
2328.00,0.0097
2327.00,0.0101
2326.00,0.0106
2325.00,0.0111
2324.00,0.0114
2323.00,0.0115
2322.00,0.0113
2321.00,0.0111
2320.00,0.0108
2319.00,0.0107
2318.00,0.0106
2317.00,0.0105
2316.00,0.0105
2315.00,0.0105
2314.00,0.0104
2313.00,0.0103
2312.00,0.0102
2311.00,0.0102
2310.00,0.0101
2309.00,0.0101
2308.00,0.0102
2307.00,0.0102
2306.00,0.0103
2305.00,0.0103
2304.00,0.0104
2303.00,0.0105
2302.00,0.0106
2301.00,0.0107
2300.00,0.0107
2299.00,0.0108
2298.00,0.0109
2297.00,0.0109
2296.00,0.0110
2295.00,0.0111
2294.00,0.0112
2293.00,0.0113
2292.00,0.0115
2291.00,0.0116
2290.00,0.0117
2289.00,0.0118
2288.00,0.0120
2287.00,0.0121
2286.00,0.0122
2285.00,0.0122
2284.00,0.0121
2283.00,0.0120
2282.00,0.0119
2281.00,0.0118
2280.00,0.0118
2279.00,0.0118
2278.00,0.0118
2277.00,0.0118
2276.00,0.0117
2275.00,0.0116
2274.00,0.0115
2273.00,0.0115
2272.00,0.0114
2271.00,0.0114
2270.00,0.0113
2269.00,0.0113
2268.00,0.0114
2267.00,0.0114
2266.00,0.0113
2265.00,0.0112
2264.00,0.0111
2263.00,0.0110
2262.00,0.0110
2261.00,0.0111
2260.00,0.0112
2259.00,0.0113
2258.00,0.0113
2257.00,0.0113
2256.00,0.0112
2255.00,0.0110
2254.00,0.0108
2253.00,0.0107
2252.00,0.0107
2251.00,0.0108
2250.00,0.0109
2249.00,0.0110
2248.00,0.0110
2247.00,0.0110
2246.00,0.0110
2245.00,0.0110
2244.00,0.0112
2243.00,0.0113
2242.00,0.0114
2241.00,0.0114
2240.00,0.0114
2239.00,0.0114
2238.00,0.0113
2237.00,0.0113
2236.00,0.0113
2235.00,0.0113
2234.00,0.0113
2233.00,0.0113
2232.00,0.0112
2231.00,0.0112
2230.00,0.0112
2229.00,0.0111
2228.00,0.0112
2227.00,0.0113
2226.00,0.0115
2225.00,0.0116
2224.00,0.0116
2223.00,0.0115
2222.00,0.0115
2221.00,0.0116
2220.00,0.0116
2219.00,0.0115
2218.00,0.0115
2217.00,0.0115
2216.00,0.0116
2215.00,0.0117
2214.00,0.0116
2213.00,0.0115
2212.00,0.0114
2211.00,0.0113
2210.00,0.0113
2209.00,0.0114
2208.00,0.0115
2207.00,0.0115
2206.00,0.0116
2205.00,0.0116
2204.00,0.0117
2203.00,0.0118
2202.00,0.0118
2201.00,0.0118
2200.00,0.0118
2199.00,0.0118
2198.00,0.0119
2197.00,0.0120
2196.00,0.0121
2195.00,0.0120
2194.00,0.0119
2193.00,0.0119
2192.00,0.0120
2191.00,0.0120
2190.00,0.0121
2189.00,0.0123
2188.00,0.0125
2187.00,0.0126
2186.00,0.0125
2185.00,0.0123
2184.00,0.0120
2183.00,0.0118
2182.00,0.0116
2181.00,0.0113
2180.00,0.0111
2179.00,0.0109
2178.00,0.0110
2177.00,0.0111
2176.00,0.0112
2175.00,0.0112
2174.00,0.0112
2173.00,0.0113
2172.00,0.0116
2171.00,0.0120
2170.00,0.0124
2169.00,0.0126
2168.00,0.0128
2167.00,0.0127
2166.00,0.0127
2165.00,0.0127
2164.00,0.0129
2163.00,0.0131
2162.00,0.0129
2161.00,0.0122
2160.00,0.0108
2159.00,0.0089
2158.00,0.0072
2157.00,0.0062
2156.00,0.0061
2155.00,0.0066
2154.00,0.0071
2153.00,0.0078
2152.00,0.0083
2151.00,0.0088
2150.00,0.0090
2149.00,0.0092
2148.00,0.0093
2147.00,0.0093
2146.00,0.0094
2145.00,0.0094
2144.00,0.0094
2143.00,0.0095
2142.00,0.0096
2141.00,0.0098
2140.00,0.0100
2139.00,0.0101
2138.00,0.0101
2137.00,0.0100
2136.00,0.0099
2135.00,0.0096
2134.00,0.0095
2133.00,0.0095
2132.00,0.0099
2131.00,0.0102
2130.00,0.0106
2129.00,0.0108
2128.00,0.0111
2127.00,0.0114
2126.00,0.0116
2125.00,0.0119
2124.00,0.0121
2123.00,0.0123
2122.00,0.0125
2121.00,0.0126
2120.00,0.0128
2119.00,0.0129
2118.00,0.0130
2117.00,0.0132
2116.00,0.0135
2115.00,0.0138
2114.00,0.0140
2113.00,0.0141
2112.00,0.0140
2111.00,0.0138
2110.00,0.0137
2109.00,0.0136
2108.00,0.0136
2107.00,0.0136
2106.00,0.0136
2105.00,0.0136
2104.00,0.0136
2103.00,0.0135
2102.00,0.0135
2101.00,0.0135
2100.00,0.0135
2099.00,0.0135
2098.00,0.0135
2097.00,0.0135
2096.00,0.0134
2095.00,0.0131
2094.00,0.0128
2093.00,0.0127
2092.00,0.0128
2091.00,0.0130
2090.00,0.0133
2089.00,0.0134
2088.00,0.0135
2087.00,0.0135
2086.00,0.0134
2085.00,0.0135
2084.00,0.0135
2083.00,0.0136
2082.00,0.0136
2081.00,0.0136
2080.00,0.0136
2079.00,0.0136
2078.00,0.0136
2077.00,0.0136
2076.00,0.0135
2075.00,0.0133
2074.00,0.0132
2073.00,0.0132
2072.00,0.0133
2071.00,0.0133
2070.00,0.0132
2069.00,0.0129
2068.00,0.0128
2067.00,0.0127
2066.00,0.0126
2065.00,0.0127
2064.00,0.0127
2063.00,0.0127
2062.00,0.0127
2061.00,0.0126
2060.00,0.0124
2059.00,0.0123
2058.00,0.0124
2057.00,0.0126
2056.00,0.0127
2055.00,0.0127
2054.00,0.0126
2053.00,0.0128
2052.00,0.0132
2051.00,0.0136
2050.00,0.0136
2049.00,0.0134
2048.00,0.0130
2047.00,0.0127
2046.00,0.0124
2045.00,0.0122
2044.00,0.0121
2043.00,0.0120
2042.00,0.0119
2041.00,0.0117
2040.00,0.0117
2039.00,0.0116
2038.00,0.0115
2037.00,0.0115
2036.00,0.0116
2035.00,0.0114
2034.00,0.0110
2033.00,0.0104
2032.00,0.0099
2031.00,0.0095
2030.00,0.0092
2029.00,0.0090
2028.00,0.0090
2027.00,0.0090
2026.00,0.0091
2025.00,0.0094
2024.00,0.0098
2023.00,0.0101
2022.00,0.0101
2021.00,0.0100
2020.00,0.0098
2019.00,0.0097
2018.00,0.0096
2017.00,0.0095
2016.00,0.0097
2015.00,0.0101
2014.00,0.0104
2013.00,0.0105
2012.00,0.0103
2011.00,0.0100
2010.00,0.0096
2009.00,0.0092
2008.00,0.0089
2007.00,0.0087
2006.00,0.0085
2005.00,0.0084
2004.00,0.0085
2003.00,0.0087
2002.00,0.0091
2001.00,0.0095
2000.00,0.0098
1999.00,0.0100
1998.00,0.0100
1997.00,0.0099
1996.00,0.0100
1995.00,0.0101
1994.00,0.0103
1993.00,0.0104
1992.00,0.0104
1991.00,0.0104
1990.00,0.0104
1989.00,0.0105
1988.00,0.0106
1987.00,0.0107
1986.00,0.0109
1985.00,0.0110
1984.00,0.0112
1983.00,0.0115
1982.00,0.0117
1981.00,0.0119
1980.00,0.0119
1979.00,0.0114
1978.00,0.0107
1977.00,0.0099
1976.00,0.0092
1975.00,0.0087
1974.00,0.0084
1973.00,0.0083
1972.00,0.0085
1971.00,0.0086
1970.00,0.0088
1969.00,0.0090
1968.00,0.0092
1967.00,0.0092
1966.00,0.0090
1965.00,0.0088
1964.00,0.0085
1963.00,0.0084
1962.00,0.0083
1961.00,0.0083
1960.00,0.0083
1959.00,0.0082
1958.00,0.0081
1957.00,0.0081
1956.00,0.0082
1955.00,0.0084
1954.00,0.0085
1953.00,0.0086
1952.00,0.0087
1951.00,0.0088
1950.00,0.0089
1949.00,0.0090
1948.00,0.0091
1947.00,0.0092
1946.00,0.0091
1945.00,0.0091
1944.00,0.0090
1943.00,0.0089
1942.00,0.0088
1941.00,0.0088
1940.00,0.0087
1939.00,0.0086
1938.00,0.0086
1937.00,0.0086
1936.00,0.0088
1935.00,0.0089
1934.00,0.0090
1933.00,0.0091
1932.00,0.0091
1931.00,0.0091
1930.00,0.0091
1929.00,0.0091
1928.00,0.0091
1927.00,0.0092
1926.00,0.0093
1925.00,0.0093
1924.00,0.0094
1923.00,0.0094
1922.00,0.0094
1921.00,0.0095
1920.00,0.0097
1919.00,0.0098
1918.00,0.0098
1917.00,0.0097
1916.00,0.0096
1915.00,0.0096
1914.00,0.0096
1913.00,0.0096
1912.00,0.0097
1911.00,0.0097
1910.00,0.0097
1909.00,0.0097
1908.00,0.0097
1907.00,0.0096
1906.00,0.0096
1905.00,0.0095
1904.00,0.0095
1903.00,0.0094
1902.00,0.0094
1901.00,0.0094
1900.00,0.0095
1899.00,0.0095
1898.00,0.0095
1897.00,0.0096
1896.00,0.0097
1895.00,0.0097
1894.00,0.0096
1893.00,0.0095
1892.00,0.0095
1891.00,0.0094
1890.00,0.0093
1889.00,0.0093
1888.00,0.0093
1887.00,0.0094
1886.00,0.0095
1885.00,0.0096
1884.00,0.0097
1883.00,0.0097
1882.00,0.0097
1881.00,0.0097
1880.00,0.0097
1879.00,0.0097
1878.00,0.0096
1877.00,0.0096
1876.00,0.0096
1875.00,0.0097
1874.00,0.0097
1873.00,0.0097
1872.00,0.0098
1871.00,0.0098
1870.00,0.0098
1869.00,0.0097
1868.00,0.0096
1867.00,0.0095
1866.00,0.0096
1865.00,0.0096
1864.00,0.0097
1863.00,0.0098
1862.00,0.0097
1861.00,0.0097
1860.00,0.0098
1859.00,0.0098
1858.00,0.0098
1857.00,0.0098
1856.00,0.0098
1855.00,0.0098
1854.00,0.0098
1853.00,0.0098
1852.00,0.0098
1851.00,0.0098
1850.00,0.0099
1849.00,0.0099
1848.00,0.0100
1847.00,0.0100
1846.00,0.0100
1845.00,0.0099
1844.00,0.0099
1843.00,0.0098
1842.00,0.0098
1841.00,0.0099
1840.00,0.0100
1839.00,0.0101
1838.00,0.0101
1837.00,0.0101
1836.00,0.0101
1835.00,0.0102
1834.00,0.0102
1833.00,0.0103
1832.00,0.0103
1831.00,0.0102
1830.00,0.0100
1829.00,0.0099
1828.00,0.0100
1827.00,0.0102
1826.00,0.0104
1825.00,0.0105
1824.00,0.0106
1823.00,0.0106
1822.00,0.0106
1821.00,0.0107
1820.00,0.0107
1819.00,0.0106
1818.00,0.0105
1817.00,0.0104
1816.00,0.0105
1815.00,0.0105
1814.00,0.0106
1813.00,0.0107
1812.00,0.0108
1811.00,0.0109
1810.00,0.0109
1809.00,0.0109
1808.00,0.0110
1807.00,0.0111
1806.00,0.0112
1805.00,0.0113
1804.00,0.0114
1803.00,0.0116
1802.00,0.0117
1801.00,0.0117
1800.00,0.0116
1799.00,0.0116
1798.00,0.0116
1797.00,0.0117
1796.00,0.0119
1795.00,0.0120
1794.00,0.0120
1793.00,0.0120
1792.00,0.0120
1791.00,0.0120
1790.00,0.0120
1789.00,0.0121
1788.00,0.0123
1787.00,0.0124
1786.00,0.0125
1785.00,0.0126
1784.00,0.0127
1783.00,0.0127
1782.00,0.0127
1781.00,0.0127
1780.00,0.0128
1779.00,0.0128
1778.00,0.0129
1777.00,0.0129
1776.00,0.0130
1775.00,0.0132
1774.00,0.0133
1773.00,0.0135
1772.00,0.0135
1771.00,0.0135
1770.00,0.0135
1769.00,0.0137
1768.00,0.0139
1767.00,0.0140
1766.00,0.0140
1765.00,0.0141
1764.00,0.0142
1763.00,0.0144
1762.00,0.0145
1761.00,0.0145
1760.00,0.0147
1759.00,0.0149
1758.00,0.0151
1757.00,0.0153
1756.00,0.0154
1755.00,0.0156
1754.00,0.0159
1753.00,0.0163
1752.00,0.0167
1751.00,0.0169
1750.00,0.0170
1749.00,0.0171
1748.00,0.0172
1747.00,0.0175
1746.00,0.0178
1745.00,0.0181
1744.00,0.0184
1743.00,0.0186
1742.00,0.0188
1741.00,0.0189
1740.00,0.0190
1739.00,0.0191
1738.00,0.0193
1737.00,0.0196
1736.00,0.0201
1735.00,0.0205
1734.00,0.0206
1733.00,0.0207
1732.00,0.0208
1731.00,0.0210
1730.00,0.0212
1729.00,0.0214
1728.00,0.0216
1727.00,0.0219
1726.00,0.0222
1725.00,0.0225
1724.00,0.0228
1723.00,0.0231
1722.00,0.0234
1721.00,0.0237
1720.00,0.0240
1719.00,0.0245
1718.00,0.0249
1717.00,0.0252
1716.00,0.0256
1715.00,0.0259
1714.00,0.0261
1713.00,0.0265
1712.00,0.0269
1711.00,0.0274
1710.00,0.0278
1709.00,0.0283
1708.00,0.0287
1707.00,0.0292
1706.00,0.0296
1705.00,0.0301
1704.00,0.0307
1703.00,0.0314
1702.00,0.0320
1701.00,0.0327
1700.00,0.0334
1699.00,0.0342
1698.00,0.0350
1697.00,0.0360
1696.00,0.0372
1695.00,0.0383
1694.00,0.0390
1693.00,0.0397
1692.00,0.0405
1691.00,0.0415
1690.00,0.0426
1689.00,0.0437
1688.00,0.0448
1687.00,0.0459
1686.00,0.0470
1685.00,0.0483
1684.00,0.0499
1683.00,0.0514
1682.00,0.0526
1681.00,0.0538
1680.00,0.0551
1679.00,0.0564
1678.00,0.0575
1677.00,0.0587
1676.00,0.0602
1675.00,0.0619
1674.00,0.0634
1673.00,0.0648
1672.00,0.0661
1671.00,0.0676
1670.00,0.0693
1669.00,0.0712
1668.00,0.0731
1667.00,0.0747
1666.00,0.0760
1665.00,0.0773
1664.00,0.0788
1663.00,0.0805
1662.00,0.0823
1661.00,0.0841
1660.00,0.0857
1659.00,0.0872
1658.00,0.0885
1657.00,0.0897
1656.00,0.0907
1655.00,0.0918
1654.00,0.0934
1653.00,0.0959
1652.00,0.0983
1651.00,0.0997
1650.00,0.1002
1649.00,0.1006
1648.00,0.1015
1647.00,0.1029
1646.00,0.1045
1645.00,0.1058
1644.00,0.1067
1643.00,0.1073
1642.00,0.1077
1641.00,0.1082
1640.00,0.1085
1639.00,0.1088
1638.00,0.1089
1637.00,0.1089
1636.00,0.1091
1635.00,0.1095
1634.00,0.1096
1633.00,0.1096
1632.00,0.1093
1631.00,0.1088
1630.00,0.1081
1629.00,0.1073
1628.00,0.1063
1627.00,0.1054
1626.00,0.1045
1625.00,0.1034
1624.00,0.1021
1623.00,0.1007
1622.00,0.0992
1621.00,0.0978
1620.00,0.0966
1619.00,0.0952
1618.00,0.0937
1617.00,0.0918
1616.00,0.0898
1615.00,0.0880
1614.00,0.0864
1613.00,0.0848
1612.00,0.0831
1611.00,0.0814
1610.00,0.0797
1609.00,0.0781
1608.00,0.0764
1607.00,0.0749
1606.00,0.0733
1605.00,0.0718
1604.00,0.0703
1603.00,0.0689
1602.00,0.0675
1601.00,0.0661
1600.00,0.0648
1599.00,0.0635
1598.00,0.0623
1597.00,0.0611
1596.00,0.0599
1595.00,0.0588
1594.00,0.0577
1593.00,0.0567
1592.00,0.0557
1591.00,0.0548
1590.00,0.0540
1589.00,0.0532
1588.00,0.0523
1587.00,0.0516
1586.00,0.0509
1585.00,0.0503
1584.00,0.0497
1583.00,0.0492
1582.00,0.0488
1581.00,0.0483
1580.00,0.0479
1579.00,0.0476
1578.00,0.0472
1577.00,0.0468
1576.00,0.0461
1575.00,0.0454
1574.00,0.0449
1573.00,0.0444
1572.00,0.0440
1571.00,0.0435
1570.00,0.0429
1569.00,0.0422
1568.00,0.0418
1567.00,0.0415
1566.00,0.0412
1565.00,0.0409
1564.00,0.0406
1563.00,0.0404
1562.00,0.0404
1561.00,0.0403
1560.00,0.0398
1559.00,0.0390
1558.00,0.0385
1557.00,0.0384
1556.00,0.0385
1555.00,0.0386
1554.00,0.0385
1553.00,0.0384
1552.00,0.0383
1551.00,0.0382
1550.00,0.0381
1549.00,0.0380
1548.00,0.0379
1547.00,0.0379
1546.00,0.0379
1545.00,0.0379
1544.00,0.0379
1543.00,0.0377
1542.00,0.0375
1541.00,0.0371
1540.00,0.0366
1539.00,0.0360
1538.00,0.0358
1537.00,0.0356
1536.00,0.0354
1535.00,0.0351
1534.00,0.0346
1533.00,0.0341
1532.00,0.0338
1531.00,0.0336
1530.00,0.0335
1529.00,0.0333
1528.00,0.0331
1527.00,0.0329
1526.00,0.0327
1525.00,0.0325
1524.00,0.0323
1523.00,0.0322
1522.00,0.0321
1521.00,0.0319
1520.00,0.0317
1519.00,0.0315
1518.00,0.0314
1517.00,0.0313
1516.00,0.0312
1515.00,0.0311
1514.00,0.0312
1513.00,0.0312
1512.00,0.0312
1511.00,0.0311
1510.00,0.0312
1509.00,0.0313
1508.00,0.0312
1507.00,0.0309
1506.00,0.0304
1505.00,0.0302
1504.00,0.0302
1503.00,0.0302
1502.00,0.0303
1501.00,0.0303
1500.00,0.0302
1499.00,0.0301
1498.00,0.0300
1497.00,0.0300
1496.00,0.0302
1495.00,0.0303
1494.00,0.0304
1493.00,0.0306
1492.00,0.0308
1491.00,0.0309
1490.00,0.0311
1489.00,0.0312
1488.00,0.0314
1487.00,0.0316
1486.00,0.0319
1485.00,0.0322
1484.00,0.0326
1483.00,0.0330
1482.00,0.0334
1481.00,0.0338
1480.00,0.0342
1479.00,0.0346
1478.00,0.0351
1477.00,0.0355
1476.00,0.0359
1475.00,0.0362
1474.00,0.0367
1473.00,0.0371
1472.00,0.0375
1471.00,0.0377
1470.00,0.0380
1469.00,0.0382
1468.00,0.0385
1467.00,0.0386
1466.00,0.0387
1465.00,0.0388
1464.00,0.0389
1463.00,0.0390
1462.00,0.0391
1461.00,0.0392
1460.00,0.0393
1459.00,0.0395
1458.00,0.0398
1457.00,0.0401
1456.00,0.0404
1455.00,0.0405
1454.00,0.0406
1453.00,0.0406
1452.00,0.0407
1451.00,0.0407
1450.00,0.0408
1449.00,0.0408
1448.00,0.0408
1447.00,0.0409
1446.00,0.0410
1445.00,0.0411
1444.00,0.0413
1443.00,0.0415
1442.00,0.0416
1441.00,0.0418
1440.00,0.0421
1439.00,0.0423
1438.00,0.0426
1437.00,0.0429
1436.00,0.0432
1435.00,0.0434
1434.00,0.0435
1433.00,0.0437
1432.00,0.0438
1431.00,0.0440
1430.00,0.0441
1429.00,0.0442
1428.00,0.0443
1427.00,0.0445
1426.00,0.0446
1425.00,0.0447
1424.00,0.0448
1423.00,0.0449
1422.00,0.0450
1421.00,0.0451
1420.00,0.0453
1419.00,0.0453
1418.00,0.0453
1417.00,0.0453
1416.00,0.0453
1415.00,0.0452
1414.00,0.0452
1413.00,0.0452
1412.00,0.0452
1411.00,0.0452
1410.00,0.0451
1409.00,0.0451
1408.00,0.0451
1407.00,0.0451
1406.00,0.0451
1405.00,0.0450
1404.00,0.0449
1403.00,0.0448
1402.00,0.0447
1401.00,0.0445
1400.00,0.0444
1399.00,0.0443
1398.00,0.0442
1397.00,0.0441
1396.00,0.0439
1395.00,0.0439
1394.00,0.0438
1393.00,0.0439
1392.00,0.0440
1391.00,0.0442
1390.00,0.0444
1389.00,0.0448
1388.00,0.0454
1387.00,0.0460
1386.00,0.0467
1385.00,0.0473
1384.00,0.0480
1383.00,0.0486
1382.00,0.0493
1381.00,0.0499
1380.00,0.0505
1379.00,0.0509
1378.00,0.0512
1377.00,0.0515
1376.00,0.0516
1375.00,0.0517
1374.00,0.0518
1373.00,0.0518
1372.00,0.0517
1371.00,0.0515
1370.00,0.0513
1369.00,0.0512
1368.00,0.0509
1367.00,0.0506
1366.00,0.0504
1365.00,0.0502
1364.00,0.0500
1363.00,0.0499
1362.00,0.0498
1361.00,0.0497
1360.00,0.0495
1359.00,0.0494
1358.00,0.0493
1357.00,0.0493
1356.00,0.0492
1355.00,0.0492
1354.00,0.0490
1353.00,0.0488
1352.00,0.0486
1351.00,0.0483
1350.00,0.0479
1349.00,0.0475
1348.00,0.0471
1347.00,0.0466
1346.00,0.0462
1345.00,0.0458
1344.00,0.0454
1343.00,0.0451
1342.00,0.0449
1341.00,0.0448
1340.00,0.0447
1339.00,0.0446
1338.00,0.0445
1337.00,0.0444
1336.00,0.0442
1335.00,0.0441
1334.00,0.0440
1333.00,0.0439
1332.00,0.0438
1331.00,0.0437
1330.00,0.0438
1329.00,0.0438
1328.00,0.0439
1327.00,0.0440
1326.00,0.0441
1325.00,0.0443
1324.00,0.0444
1323.00,0.0446
1322.00,0.0447
1321.00,0.0449
1320.00,0.0450
1319.00,0.0451
1318.00,0.0453
1317.00,0.0454
1316.00,0.0455
1315.00,0.0456
1314.00,0.0457
1313.00,0.0458
1312.00,0.0459
1311.00,0.0460
1310.00,0.0462
1309.00,0.0463
1308.00,0.0465
1307.00,0.0468
1306.00,0.0471
1305.00,0.0474
1304.00,0.0477
1303.00,0.0481
1302.00,0.0486
1301.00,0.0491
1300.00,0.0498
1299.00,0.0505
1298.00,0.0512
1297.00,0.0521
1296.00,0.0531
1295.00,0.0541
1294.00,0.0553
1293.00,0.0565
1292.00,0.0578
1291.00,0.0592
1290.00,0.0607
1289.00,0.0622
1288.00,0.0637
1287.00,0.0654
1286.00,0.0671
1285.00,0.0689
1284.00,0.0709
1283.00,0.0729
1282.00,0.0751
1281.00,0.0772
1280.00,0.0795
1279.00,0.0817
1278.00,0.0841
1277.00,0.0864
1276.00,0.0889
1275.00,0.0913
1274.00,0.0938
1273.00,0.0963
1272.00,0.0988
1271.00,0.1013
1270.00,0.1037
1269.00,0.1060
1268.00,0.1083
1267.00,0.1104
1266.00,0.1125
1265.00,0.1144
1264.00,0.1161
1263.00,0.1178
1262.00,0.1193
1261.00,0.1208
1260.00,0.1223
1259.00,0.1236
1258.00,0.1247
1257.00,0.1258
1256.00,0.1268
1255.00,0.1276
1254.00,0.1284
1253.00,0.1291
1252.00,0.1297
1251.00,0.1303
1250.00,0.1308
1249.00,0.1312
1248.00,0.1316
1247.00,0.1320
1246.00,0.1324
1245.00,0.1329
1244.00,0.1335
1243.00,0.1340
1242.00,0.1346
1241.00,0.1353
1240.00,0.1361
1239.00,0.1368
1238.00,0.1376
1237.00,0.1384
1236.00,0.1392
1235.00,0.1399
1234.00,0.1406
1233.00,0.1412
1232.00,0.1416
1231.00,0.1420
1230.00,0.1423
1229.00,0.1425
1228.00,0.1426
1227.00,0.1426
1226.00,0.1425
1225.00,0.1422
1224.00,0.1418
1223.00,0.1413
1222.00,0.1406
1221.00,0.1397
1220.00,0.1388
1219.00,0.1376
1218.00,0.1362
1217.00,0.1347
1216.00,0.1329
1215.00,0.1310
1214.00,0.1290
1213.00,0.1267
1212.00,0.1244
1211.00,0.1219
1210.00,0.1194
1209.00,0.1168
1208.00,0.1141
1207.00,0.1113
1206.00,0.1086
1205.00,0.1060
1204.00,0.1034
1203.00,0.1010
1202.00,0.0987
1201.00,0.0967
1200.00,0.0949
1199.00,0.0934
1198.00,0.0922
1197.00,0.0913
1196.00,0.0906
1195.00,0.0901
1194.00,0.0897
1193.00,0.0894
1192.00,0.0889
1191.00,0.0882
1190.00,0.0873
1189.00,0.0863
1188.00,0.0852
1187.00,0.0840
1186.00,0.0828
1185.00,0.0818
1184.00,0.0810
1183.00,0.0803
1182.00,0.0799
1181.00,0.0798
1180.00,0.0799
1179.00,0.0801
1178.00,0.0806
1177.00,0.0812
1176.00,0.0820
1175.00,0.0829
1174.00,0.0839
1173.00,0.0851
1172.00,0.0865
1171.00,0.0881
1170.00,0.0899
1169.00,0.0919
1168.00,0.0941
1167.00,0.0963
1166.00,0.0985
1165.00,0.1007
1164.00,0.1027
1163.00,0.1046
1162.00,0.1062
1161.00,0.1075
1160.00,0.1085
1159.00,0.1092
1158.00,0.1095
1157.00,0.1096
1156.00,0.1093
1155.00,0.1087
1154.00,0.1079
1153.00,0.1068
1152.00,0.1055
1151.00,0.1040
1150.00,0.1024
1149.00,0.1006
1148.00,0.0989
1147.00,0.0970
1146.00,0.0952
1145.00,0.0935
1144.00,0.0919
1143.00,0.0906
1142.00,0.0894
1141.00,0.0886
1140.00,0.0881
1139.00,0.0880
1138.00,0.0884
1137.00,0.0891
1136.00,0.0904
1135.00,0.0921
1134.00,0.0942
1133.00,0.0966
1132.00,0.0990
1131.00,0.1013
1130.00,0.1034
1129.00,0.1052
1128.00,0.1065
1127.00,0.1073
1126.00,0.1075
1125.00,0.1073
1124.00,0.1066
1123.00,0.1057
1122.00,0.1045
1121.00,0.1033
1120.00,0.1022
1119.00,0.1012
1118.00,0.1004
1117.00,0.0997
1116.00,0.0990
1115.00,0.0985
1114.00,0.0980
1113.00,0.0975
1112.00,0.0971
1111.00,0.0967
1110.00,0.0965
1109.00,0.0964
1108.00,0.0966
1107.00,0.0970
1106.00,0.0977
1105.00,0.0987
1104.00,0.1000
1103.00,0.1017
1102.00,0.1037
1101.00,0.1060
1100.00,0.1085
1099.00,0.1111
1098.00,0.1136
1097.00,0.1161
1096.00,0.1185
1095.00,0.1208
1094.00,0.1228
1093.00,0.1248
1092.00,0.1266
1091.00,0.1285
1090.00,0.1304
1089.00,0.1325
1088.00,0.1347
1087.00,0.1370
1086.00,0.1395
1085.00,0.1422
1084.00,0.1451
1083.00,0.1482
1082.00,0.1514
1081.00,0.1550
1080.00,0.1587
1079.00,0.1627
1078.00,0.1668
1077.00,0.1709
1076.00,0.1750
1075.00,0.1791
1074.00,0.1830
1073.00,0.1868
1072.00,0.1904
1071.00,0.1937
1070.00,0.1968
1069.00,0.1994
1068.00,0.2013
1067.00,0.2023
1066.00,0.2024
1065.00,0.2015
1064.00,0.1999
1063.00,0.1976
1062.00,0.1948
1061.00,0.1921
1060.00,0.1895
1059.00,0.1873
1058.00,0.1857
1057.00,0.1846
1056.00,0.1840
1055.00,0.1838
1054.00,0.1839
1053.00,0.1842
1052.00,0.1848
1051.00,0.1856
1050.00,0.1866
1049.00,0.1879
1048.00,0.1897
1047.00,0.1919
1046.00,0.1945
1045.00,0.1973
1044.00,0.2000
1043.00,0.2024
1042.00,0.2041
1041.00,0.2052
1040.00,0.2057
1039.00,0.2058
1038.00,0.2055
1037.00,0.2050
1036.00,0.2047
1035.00,0.2045
1034.00,0.2046
1033.00,0.2052
1032.00,0.2062
1031.00,0.2073
1030.00,0.2083
1029.00,0.2089
1028.00,0.2089
1027.00,0.2081
1026.00,0.2066
1025.00,0.2043
1024.00,0.2014
1023.00,0.1979
1022.00,0.1940
1021.00,0.1900
1020.00,0.1860
1019.00,0.1820
1018.00,0.1780
1017.00,0.1742
1016.00,0.1705
1015.00,0.1672
1014.00,0.1644
1013.00,0.1622
1012.00,0.1604
1011.00,0.1592
1010.00,0.1585
1009.00,0.1582
1008.00,0.1583
1007.00,0.1586
1006.00,0.1589
1005.00,0.1591
1004.00,0.1589
1003.00,0.1580
1002.00,0.1563
1001.00,0.1539
1000.00,0.1509
999.00,0.1475
998.00,0.1440
997.00,0.1406
996.00,0.1375
995.00,0.1349
994.00,0.1327
993.00,0.1310
992.00,0.1296
991.00,0.1284
990.00,0.1273
989.00,0.1261
988.00,0.1246
987.00,0.1230
986.00,0.1212
985.00,0.1193
984.00,0.1175
983.00,0.1157
982.00,0.1142
981.00,0.1129
980.00,0.1120
979.00,0.1114
978.00,0.1110
977.00,0.1109
976.00,0.1109
975.00,0.1111
974.00,0.1115
973.00,0.1121
972.00,0.1126
971.00,0.1130
970.00,0.1129
969.00,0.1121
968.00,0.1104
967.00,0.1079
966.00,0.1047
965.00,0.1012
964.00,0.0975
963.00,0.0940
962.00,0.0908
961.00,0.0881
960.00,0.0860
959.00,0.0843
958.00,0.0829
957.00,0.0820
956.00,0.0813
955.00,0.0809
954.00,0.0809
953.00,0.0810
952.00,0.0814
951.00,0.0819
950.00,0.0826
949.00,0.0834
948.00,0.0843
947.00,0.0853
946.00,0.0866
945.00,0.0882
944.00,0.0901
943.00,0.0923
942.00,0.0950
941.00,0.0982
940.00,0.1019
939.00,0.1060
938.00,0.1107
937.00,0.1156
936.00,0.1207
935.00,0.1256
934.00,0.1300
933.00,0.1339
932.00,0.1372
931.00,0.1400
930.00,0.1424
929.00,0.1444
928.00,0.1461
927.00,0.1472
926.00,0.1480
925.00,0.1483
924.00,0.1482
923.00,0.1479
922.00,0.1474
921.00,0.1468
920.00,0.1460
919.00,0.1451
918.00,0.1439
917.00,0.1426
916.00,0.1410
915.00,0.1393
914.00,0.1374
913.00,0.1354
912.00,0.1332
911.00,0.1308
910.00,0.1284
909.00,0.1262
908.00,0.1242
907.00,0.1224
906.00,0.1208
905.00,0.1194
904.00,0.1182
903.00,0.1171
902.00,0.1162
901.00,0.1155
900.00,0.1148
899.00,0.1143
898.00,0.1139
897.00,0.1137
896.00,0.1136
895.00,0.1135
894.00,0.1136
893.00,0.1137
892.00,0.1138
891.00,0.1137
890.00,0.1135
889.00,0.1130
888.00,0.1121
887.00,0.1109
886.00,0.1092
885.00,0.1072
884.00,0.1050
883.00,0.1027
882.00,0.1006
881.00,0.0987
880.00,0.0972
879.00,0.0965
878.00,0.0964
877.00,0.0970
876.00,0.0978
875.00,0.0988
874.00,0.0996
873.00,0.1001
872.00,0.1002
871.00,0.1001
870.00,0.0998
869.00,0.0996
868.00,0.0994
867.00,0.0992
866.00,0.0993
865.00,0.0996
864.00,0.1003
863.00,0.1013
862.00,0.1027
861.00,0.1044
860.00,0.1064
859.00,0.1085
858.00,0.1110
857.00,0.1138
856.00,0.1168
855.00,0.1202
854.00,0.1237
853.00,0.1273
852.00,0.1310
851.00,0.1345
850.00,0.1377
849.00,0.1405
848.00,0.1428
847.00,0.1445
846.00,0.1456
845.00,0.1459
844.00,0.1453
843.00,0.1439
842.00,0.1418
841.00,0.1393
840.00,0.1365
839.00,0.1336
838.00,0.1308
837.00,0.1282
836.00,0.1257
835.00,0.1234
834.00,0.1213
833.00,0.1194
832.00,0.1176
831.00,0.1161
830.00,0.1148
829.00,0.1137
828.00,0.1127
827.00,0.1119
826.00,0.1112
825.00,0.1107
824.00,0.1102
823.00,0.1098
822.00,0.1095
821.00,0.1094
820.00,0.1093
819.00,0.1093
818.00,0.1094
817.00,0.1096
816.00,0.1099
815.00,0.1104
814.00,0.1110
813.00,0.1118
812.00,0.1127
811.00,0.1137
810.00,0.1148
809.00,0.1159
808.00,0.1171
807.00,0.1182
806.00,0.1193
805.00,0.1204
804.00,0.1213
803.00,0.1222
802.00,0.1229
801.00,0.1235
800.00,0.1238
799.00,0.1238
798.00,0.1238
797.00,0.1237
796.00,0.1235
795.00,0.1232
794.00,0.1228
793.00,0.1225
792.00,0.1222
791.00,0.1220
790.00,0.1218
789.00,0.1218
788.00,0.1218
787.00,0.1221
786.00,0.1225
785.00,0.1230
784.00,0.1236
783.00,0.1243
782.00,0.1251
781.00,0.1260
780.00,0.1271
779.00,0.1283
778.00,0.1296
777.00,0.1310
776.00,0.1322
775.00,0.1332
774.00,0.1340
773.00,0.1345
772.00,0.1348
771.00,0.1348
770.00,0.1345
769.00,0.1342
768.00,0.1339
767.00,0.1336
766.00,0.1334
765.00,0.1334
764.00,0.1334
763.00,0.1335
762.00,0.1337
761.00,0.1341
760.00,0.1345
759.00,0.1349
758.00,0.1354
757.00,0.1361
756.00,0.1370
755.00,0.1381
754.00,0.1393
753.00,0.1407
752.00,0.1424
751.00,0.1444
750.00,0.1467
749.00,0.1492
748.00,0.1516
747.00,0.1538
746.00,0.1558
745.00,0.1576
744.00,0.1593
743.00,0.1608
742.00,0.1624
741.00,0.1639
740.00,0.1655
739.00,0.1671
738.00,0.1685
737.00,0.1699
736.00,0.1710
735.00,0.1718
734.00,0.1726
733.00,0.1732
732.00,0.1738
731.00,0.1745
730.00,0.1754
729.00,0.1763
728.00,0.1773
727.00,0.1783
726.00,0.1792
725.00,0.1801
724.00,0.1807
723.00,0.1810
722.00,0.1812
721.00,0.1812
720.00,0.1812
719.00,0.1811
718.00,0.1810
717.00,0.1811
716.00,0.1812
715.00,0.1816
714.00,0.1824
713.00,0.1836
712.00,0.1852
711.00,0.1870
710.00,0.1891
709.00,0.1912
708.00,0.1934
707.00,0.1955
706.00,0.1976
705.00,0.1995
704.00,0.2010
703.00,0.2020
702.00,0.2027
701.00,0.2031
700.00,0.2031
699.00,0.2028
698.00,0.2023
697.00,0.2016
696.00,0.2007
695.00,0.1997
694.00,0.1987
693.00,0.1976
692.00,0.1963
691.00,0.1951
690.00,0.1940
689.00,0.1930
688.00,0.1922
687.00,0.1915
686.00,0.1909
685.00,0.1905
684.00,0.1902
683.00,0.1901
682.00,0.1902
681.00,0.1904
680.00,0.1907
679.00,0.1909
678.00,0.1913
677.00,0.1918
676.00,0.1924
675.00,0.1931
674.00,0.1940
673.00,0.1949
672.00,0.1955
671.00,0.1958
670.00,0.1963
669.00,0.1973
668.00,0.1992
667.00,0.2009
666.00,0.2014
665.00,0.2012
664.00,0.2010
663.00,0.2011
662.00,0.2014
661.00,0.2018
660.00,0.2022
659.00,0.2026
658.00,0.2030
657.00,0.2035
656.00,0.2039
655.00,0.2042
654.00,0.2045
653.00,0.2047
652.00,0.2050
651.00,0.2053
650.00,0.2057
649.00,0.2062
648.00,0.2067
647.00,0.2072
646.00,0.2077
645.00,0.2080
644.00,0.2083
643.00,0.2087
642.00,0.2092
641.00,0.2098
640.00,0.2104
639.00,0.2109
638.00,0.2116
637.00,0.2126
636.00,0.2136
635.00,0.2149
634.00,0.2162
633.00,0.2175
632.00,0.2190
631.00,0.2205
630.00,0.2222
629.00,0.2240
628.00,0.2258
627.00,0.2276
626.00,0.2295
625.00,0.2315
624.00,0.2334
623.00,0.2353
622.00,0.2370
621.00,0.2385
620.00,0.2399
619.00,0.2412
618.00,0.2424
617.00,0.2437
616.00,0.2450
615.00,0.2464
614.00,0.2478
613.00,0.2493
612.00,0.2510
611.00,0.2526
610.00,0.2543
609.00,0.2558
608.00,0.2571
607.00,0.2582
606.00,0.2590
605.00,0.2594
604.00,0.2597
603.00,0.2599
602.00,0.2603
601.00,0.2607
600.00,0.2612
599.00,0.2616
598.00,0.2620
597.00,0.2625
596.00,0.2631
595.00,0.2639
594.00,0.2649
593.00,0.2658
592.00,0.2667
591.00,0.2677
590.00,0.2688
589.00,0.2700
588.00,0.2713
587.00,0.2727
586.00,0.2742
585.00,0.2760
584.00,0.2779
583.00,0.2797
582.00,0.2814
581.00,0.2831
580.00,0.2847
579.00,0.2862
578.00,0.2873
577.00,0.2881
576.00,0.2887
575.00,0.2892
574.00,0.2894
573.00,0.2895
572.00,0.2895
571.00,0.2895
570.00,0.2896
569.00,0.2900
568.00,0.2905
567.00,0.2909
566.00,0.2910
565.00,0.2911
564.00,0.2913
563.00,0.2915
562.00,0.2917
561.00,0.2917
560.00,0.2918
559.00,0.2920
558.00,0.2925
557.00,0.2932
556.00,0.2936
555.00,0.2937
554.00,0.2936
553.00,0.2935
552.00,0.2936
551.00,0.2940
550.00,0.2945
549.00,0.2954
548.00,0.2964
547.00,0.2974
546.00,0.2983
545.00,0.2992
544.00,0.3002
543.00,0.3012
542.00,0.3020
541.00,0.3025
540.00,0.3027
539.00,0.3028
538.00,0.3027
537.00,0.3025
536.00,0.3021
535.00,0.3018
534.00,0.3014
533.00,0.3011
532.00,0.3009
531.00,0.3012
530.00,0.3017
529.00,0.3021
528.00,0.3023
527.00,0.3022
526.00,0.3021
525.00,0.3021
524.00,0.3023
523.00,0.3028
522.00,0.3035
521.00,0.3045
520.00,0.3058
519.00,0.3069
518.00,0.3075
517.00,0.3077
516.00,0.3079
515.00,0.3080
514.00,0.3080
513.00,0.3077
512.00,0.3072
511.00,0.3069
510.00,0.3069
509.00,0.3071
508.00,0.3076
507.00,0.3080
506.00,0.3082
505.00,0.3081
504.00,0.3083
503.00,0.3087
502.00,0.3091
501.00,0.3091
500.00,0.3088
499.00,0.3086
498.00,0.3085
497.00,0.3084
496.00,0.3082
495.00,0.3080
494.00,0.3081
493.00,0.3086
492.00,0.3095
491.00,0.3106
490.00,0.3112
489.00,0.3114
488.00,0.3117
487.00,0.3123
486.00,0.3130
485.00,0.3134
484.00,0.3133
483.00,0.3133
482.00,0.3138
481.00,0.3145
480.00,0.3150
479.00,0.3153
478.00,0.3155
477.00,0.3156
476.00,0.3161
475.00,0.3169
474.00,0.3180
473.00,0.3192
472.00,0.3203
471.00,0.3214
470.00,0.3224
469.00,0.3227
468.00,0.3226
467.00,0.3226
466.00,0.3228
465.00,0.3233
464.00,0.3240
463.00,0.3251
462.00,0.3270
461.00,0.3293
460.00,0.3315
459.00,0.3331
458.00,0.3341
457.00,0.3348
456.00,0.3357
455.00,0.3369
454.00,0.3382
453.00,0.3392
452.00,0.3400
451.00,0.3406
450.00,0.3412
