Created as New Dataset,Sample 002 By Administrator Date Friday, May 30 2025
cm-1,A
4000.00,0.0079
3999.00,0.0079
3998.00,0.0079
3997.00,0.0079
3996.00,0.0079
3995.00,0.0079
3994.00,0.0080
3993.00,0.0080
3992.00,0.0080
3991.00,0.0080
3990.00,0.0079
3989.00,0.0079
3988.00,0.0079
3987.00,0.0079
3986.00,0.0079
3985.00,0.0079
3984.00,0.0079
3983.00,0.0079
3982.00,0.0080
3981.00,0.0080
3980.00,0.0081
3979.00,0.0081
3978.00,0.0081
3977.00,0.0081
3976.00,0.0081
3975.00,0.0081
3974.00,0.0080
3973.00,0.0080
3972.00,0.0080
3971.00,0.0080
3970.00,0.0080
3969.00,0.0080
3968.00,0.0080
3967.00,0.0080
3966.00,0.0081
3965.00,0.0081
3964.00,0.0081
3963.00,0.0081
3962.00,0.0081
3961.00,0.0081
3960.00,0.0081
3959.00,0.0081
3958.00,0.0081
3957.00,0.0081
3956.00,0.0081
3955.00,0.0081
3954.00,0.0081
3953.00,0.0080
3952.00,0.0080
3951.00,0.0080
3950.00,0.0080
3949.00,0.0080
3948.00,0.0080
3947.00,0.0080
3946.00,0.0080
3945.00,0.0083
3944.00,0.0083
3943.00,0.0082
3942.00,0.0081
3941.00,0.0081
3940.00,0.0081
3939.00,0.0081
3938.00,0.0081
3937.00,0.0081
3936.00,0.0082
3935.00,0.0082
3934.00,0.0083
3933.00,0.0083
3932.00,0.0083
3931.00,0.0083
3930.00,0.0082
3929.00,0.0082
3928.00,0.0082
3927.00,0.0083
3926.00,0.0083
3925.00,0.0082
3924.00,0.0082
3923.00,0.0082
3922.00,0.0082
3921.00,0.0082
3920.00,0.0082
3919.00,0.0082
3918.00,0.0082
3917.00,0.0081
3916.00,0.0081
3915.00,0.0080
3914.00,0.0080
3913.00,0.0080
3912.00,0.0081
3911.00,0.0081
3910.00,0.0081
3909.00,0.0082
3908.00,0.0083
3907.00,0.0084
3906.00,0.0085
3905.00,0.0086
3904.00,0.0086
3903.00,0.0087
3902.00,0.0086
3901.00,0.0086
3900.00,0.0084
3899.00,0.0083
3898.00,0.0082
3897.00,0.0082
3896.00,0.0082
3895.00,0.0082
3894.00,0.0083
3893.00,0.0083
3892.00,0.0083
3891.00,0.0083
3890.00,0.0083
3889.00,0.0083
3888.00,0.0084
3887.00,0.0084
3886.00,0.0084
3885.00,0.0085
3884.00,0.0086
3883.00,0.0087
3882.00,0.0086
3881.00,0.0085
3880.00,0.0083
3879.00,0.0083
3878.00,0.0083
3877.00,0.0083
3876.00,0.0083
3875.00,0.0084
3874.00,0.0084
3873.00,0.0085
3872.00,0.0086
3871.00,0.0086
3870.00,0.0085
3869.00,0.0084
3868.00,0.0084
3867.00,0.0084
3866.00,0.0084
3865.00,0.0084
3864.00,0.0084
3863.00,0.0084
3862.00,0.0084
3861.00,0.0084
3860.00,0.0084
3859.00,0.0084
3858.00,0.0085
3857.00,0.0086
3856.00,0.0087
3855.00,0.0087
3854.00,0.0086
3853.00,0.0086
3852.00,0.0086
3851.00,0.0085
3850.00,0.0084
3849.00,0.0083
3848.00,0.0083
3847.00,0.0083
3846.00,0.0083
3845.00,0.0084
3844.00,0.0085
3843.00,0.0085
3842.00,0.0086
3841.00,0.0086
3840.00,0.0086
3839.00,0.0085
3838.00,0.0085
3837.00,0.0084
3836.00,0.0084
3835.00,0.0084
3834.00,0.0084
3833.00,0.0083
3832.00,0.0083
3831.00,0.0083
3830.00,0.0083
3829.00,0.0083
3828.00,0.0084
3827.00,0.0084
3826.00,0.0084
3825.00,0.0085
3824.00,0.0086
3823.00,0.0086
3822.00,0.0085
3821.00,0.0084
3820.00,0.0084
3819.00,0.0085
3818.00,0.0085
3817.00,0.0085
3816.00,0.0084
3815.00,0.0084
3814.00,0.0084
3813.00,0.0084
3812.00,0.0084
3811.00,0.0084
3810.00,0.0084
3809.00,0.0084
3808.00,0.0084
3807.00,0.0084
3806.00,0.0085
3805.00,0.0085
3804.00,0.0086
3803.00,0.0086
3802.00,0.0085
3801.00,0.0085
3800.00,0.0086
3799.00,0.0086
3798.00,0.0086
3797.00,0.0086
3796.00,0.0086
3795.00,0.0086
3794.00,0.0086
3793.00,0.0085
3792.00,0.0085
3791.00,0.0084
3790.00,0.0084
3789.00,0.0085
3788.00,0.0085
3787.00,0.0086
3786.00,0.0086
3785.00,0.0087
3784.00,0.0087
3783.00,0.0088
3782.00,0.0088
3781.00,0.0088
3780.00,0.0088
3779.00,0.0087
3778.00,0.0087
3777.00,0.0088
3776.00,0.0088
3775.00,0.0088
3774.00,0.0088
3773.00,0.0088
3772.00,0.0089
3771.00,0.0090
3770.00,0.0090
3769.00,0.0091
3768.00,0.0091
3767.00,0.0092
3766.00,0.0091
3765.00,0.0091
3764.00,0.0091
3763.00,0.0091
3762.00,0.0092
3761.00,0.0092
3760.00,0.0093
3759.00,0.0093
3758.00,0.0093
3757.00,0.0094
3756.00,0.0094
3755.00,0.0095
3754.00,0.0095
3753.00,0.0096
3752.00,0.0097
3751.00,0.0097
3750.00,0.0098
3749.00,0.0098
3748.00,0.0099
3747.00,0.0100
3746.00,0.0099
3745.00,0.0098
3744.00,0.0098
3743.00,0.0098
3742.00,0.0098
3741.00,0.0098
3740.00,0.0098
3739.00,0.0099
3738.00,0.0101
3737.00,0.0102
3736.00,0.0102
3735.00,0.0102
3734.00,0.0101
3733.00,0.0101
3732.00,0.0100
3731.00,0.0100
3730.00,0.0100
3729.00,0.0101
3728.00,0.0101
3727.00,0.0102
3726.00,0.0102
3725.00,0.0103
3724.00,0.0104
3723.00,0.0104
3722.00,0.0104
3721.00,0.0104
3720.00,0.0104
3719.00,0.0104
3718.00,0.0104
3717.00,0.0105
3716.00,0.0106
3715.00,0.0108
3714.00,0.0109
3713.00,0.0110
3712.00,0.0111
3711.00,0.0111
3710.00,0.0112
3709.00,0.0112
3708.00,0.0112
3707.00,0.0112
3706.00,0.0112
3705.00,0.0113
3704.00,0.0114
3703.00,0.0115
3702.00,0.0117
3701.00,0.0118
3700.00,0.0120
3699.00,0.0121
3698.00,0.0122
3697.00,0.0123
3696.00,0.0124
3695.00,0.0125
3694.00,0.0127
3693.00,0.0129
3692.00,0.0130
3691.00,0.0132
3690.00,0.0133
3689.00,0.0135
3688.00,0.0137
3687.00,0.0139
3686.00,0.0141
3685.00,0.0142
3684.00,0.0144
3683.00,0.0146
3682.00,0.0148
3681.00,0.0151
3680.00,0.0153
3679.00,0.0156
3678.00,0.0158
3677.00,0.0161
3676.00,0.0165
3675.00,0.0169
3674.00,0.0173
3673.00,0.0176
3672.00,0.0179
3671.00,0.0182
3670.00,0.0184
3669.00,0.0188
3668.00,0.0192
3667.00,0.0195
3666.00,0.0198
3665.00,0.0202
3664.00,0.0205
3663.00,0.0208
3662.00,0.0212
3661.00,0.0216
3660.00,0.0221
3659.00,0.0226
3658.00,0.0231
3657.00,0.0236
3656.00,0.0242
3655.00,0.0247
3654.00,0.0253
3653.00,0.0259
3652.00,0.0264
3651.00,0.0270
3650.00,0.0277
3649.00,0.0286
3648.00,0.0294
3647.00,0.0301
3646.00,0.0306
3645.00,0.0310
3644.00,0.0314
3643.00,0.0318
3642.00,0.0323
3641.00,0.0328
3640.00,0.0334
3639.00,0.0340
3638.00,0.0346
3637.00,0.0353
3636.00,0.0360
3635.00,0.0367
3634.00,0.0374
3633.00,0.0380
3632.00,0.0387
3631.00,0.0393
3630.00,0.0401
3629.00,0.0410
3628.00,0.0419
3627.00,0.0427
3626.00,0.0434
3625.00,0.0440
3624.00,0.0445
3623.00,0.0451
3622.00,0.0457
3621.00,0.0464
3620.00,0.0471
3619.00,0.0479
3618.00,0.0487
3617.00,0.0495
3616.00,0.0502
3615.00,0.0509
3614.00,0.0515
3613.00,0.0522
3612.00,0.0529
3611.00,0.0536
3610.00,0.0544
3609.00,0.0552
3608.00,0.0560
3607.00,0.0568
3606.00,0.0575
3605.00,0.0581
3604.00,0.0586
3603.00,0.0592
3602.00,0.0598
3601.00,0.0605
3600.00,0.0612
3599.00,0.0619
3598.00,0.0627
3597.00,0.0634
3596.00,0.0641
3595.00,0.0649
3594.00,0.0656
3593.00,0.0663
3592.00,0.0670
3591.00,0.0676
3590.00,0.0682
3589.00,0.0689
3588.00,0.0697
3587.00,0.0706
3586.00,0.0714
3585.00,0.0721
3584.00,0.0728
3583.00,0.0734
3582.00,0.0740
3581.00,0.0745
3580.00,0.0751
3579.00,0.0758
3578.00,0.0764
3577.00,0.0771
3576.00,0.0777
3575.00,0.0784
3574.00,0.0790
3573.00,0.0797
3572.00,0.0804
3571.00,0.0810
3570.00,0.0816
3569.00,0.0822
3568.00,0.0829
3567.00,0.0838
3566.00,0.0847
3565.00,0.0856
3564.00,0.0863
3563.00,0.0869
3562.00,0.0875
3561.00,0.0880
3560.00,0.0886
3559.00,0.0892
3558.00,0.0898
3557.00,0.0903
3556.00,0.0908
3555.00,0.0914
3554.00,0.0920
3553.00,0.0927
3552.00,0.0934
3551.00,0.0941
3550.00,0.0948
3549.00,0.0954
3548.00,0.0960
3547.00,0.0967
3546.00,0.0974
3545.00,0.0982
3544.00,0.0989
3543.00,0.0995
3542.00,0.1002
3541.00,0.1008
3540.00,0.1014
3539.00,0.1020
3538.00,0.1026
3537.00,0.1032
3536.00,0.1038
3535.00,0.1044
3534.00,0.1050
3533.00,0.1056
3532.00,0.1063
3531.00,0.1069
3530.00,0.1075
3529.00,0.1081
3528.00,0.1088
3527.00,0.1095
3526.00,0.1101
3525.00,0.1108
3524.00,0.1114
3523.00,0.1121
3522.00,0.1127
3521.00,0.1133
3520.00,0.1139
3519.00,0.1145
3518.00,0.1151
3517.00,0.1157
3516.00,0.1163
3515.00,0.1169
3514.00,0.1175
3513.00,0.1180
3512.00,0.1186
3511.00,0.1192
3510.00,0.1198
3509.00,0.1205
3508.00,0.1211
3507.00,0.1218
3506.00,0.1224
3505.00,0.1231
3504.00,0.1237
3503.00,0.1244
3502.00,0.1250
3501.00,0.1256
3500.00,0.1262
3499.00,0.1268
3498.00,0.1273
3497.00,0.1279
3496.00,0.1285
3495.00,0.1291
3494.00,0.1296
3493.00,0.1302
3492.00,0.1308
3491.00,0.1313
3490.00,0.1319
3489.00,0.1325
3488.00,0.1331
3487.00,0.1338
3486.00,0.1344
3485.00,0.1349
3484.00,0.1355
3483.00,0.1360
3482.00,0.1366
3481.00,0.1373
3480.00,0.1379
3479.00,0.1384
3478.00,0.1389
3477.00,0.1393
3476.00,0.1398
3475.00,0.1404
3474.00,0.1409
3473.00,0.1415
3472.00,0.1422
3471.00,0.1428
3470.00,0.1434
3469.00,0.1439
3468.00,0.1444
3467.00,0.1450
3466.00,0.1455
3465.00,0.1460
3464.00,0.1465
3463.00,0.1470
3462.00,0.1475
3461.00,0.1480
3460.00,0.1485
3459.00,0.1490
3458.00,0.1494
3457.00,0.1499
3456.00,0.1504
3455.00,0.1510
3454.00,0.1515
3453.00,0.1520
3452.00,0.1524
3451.00,0.1529
3450.00,0.1534
3449.00,0.1539
3448.00,0.1544
3447.00,0.1549
3446.00,0.1554
3445.00,0.1558
3444.00,0.1562
3443.00,0.1567
3442.00,0.1571
3441.00,0.1576
3440.00,0.1581
3439.00,0.1586
3438.00,0.1590
3437.00,0.1595
3436.00,0.1599
3435.00,0.1603
3434.00,0.1607
3433.00,0.1610
3432.00,0.1614
3431.00,0.1618
3430.00,0.1622
3429.00,0.1626
3428.00,0.1630
3427.00,0.1633
3426.00,0.1637
3425.00,0.1640
3424.00,0.1643
3423.00,0.1646
3422.00,0.1649
3421.00,0.1652
3420.00,0.1655
3419.00,0.1658
3418.00,0.1661
3417.00,0.1664
3416.00,0.1667
3415.00,0.1670
3414.00,0.1674
3413.00,0.1677
3412.00,0.1680
3411.00,0.1682
3410.00,0.1684
3409.00,0.1686
3408.00,0.1688
3407.00,0.1690
3406.00,0.1692
3405.00,0.1694
3404.00,0.1697
3403.00,0.1699
3402.00,0.1701
3401.00,0.1703
3400.00,0.1704
3399.00,0.1706
3398.00,0.1707
3397.00,0.1708
3396.00,0.1710
3395.00,0.1711
3394.00,0.1711
3393.00,0.1712
3392.00,0.1713
3391.00,0.1713
3390.00,0.1713
3389.00,0.1713
3388.00,0.1713
3387.00,0.1713
3386.00,0.1713
3385.00,0.1713
3384.00,0.1713
3383.00,0.1714
3382.00,0.1714
3381.00,0.1714
3380.00,0.1714
3379.00,0.1714
3378.00,0.1714
3377.00,0.1714
3376.00,0.1714
3375.00,0.1713
3374.00,0.1712
3373.00,0.1711
3372.00,0.1710
3371.00,0.1709
3370.00,0.1708
3369.00,0.1707
3368.00,0.1705
3367.00,0.1703
3366.00,0.1701
3365.00,0.1700
3364.00,0.1698
3363.00,0.1697
3362.00,0.1695
3361.00,0.1693
3360.00,0.1691
3359.00,0.1688
3358.00,0.1687
3357.00,0.1685
3356.00,0.1683
3355.00,0.1681
3354.00,0.1679
3353.00,0.1676
3352.00,0.1674
3351.00,0.1671
3350.00,0.1668
3349.00,0.1665
3348.00,0.1662
3347.00,0.1659
3346.00,0.1656
3345.00,0.1654
3344.00,0.1651
3343.00,0.1648
3342.00,0.1645
3341.00,0.1642
3340.00,0.1639
3339.00,0.1636
3338.00,0.1632
3337.00,0.1629
3336.00,0.1625
3335.00,0.1621
3334.00,0.1617
3333.00,0.1614
3332.00,0.1610
3331.00,0.1607
3330.00,0.1603
3329.00,0.1599
3328.00,0.1595
3327.00,0.1591
3326.00,0.1587
3325.00,0.1584
3324.00,0.1580
3323.00,0.1576
3322.00,0.1572
3321.00,0.1569
3320.00,0.1565
3319.00,0.1561
3318.00,0.1557
3317.00,0.1553
3316.00,0.1549
3315.00,0.1545
3314.00,0.1541
3313.00,0.1538
3312.00,0.1534
3311.00,0.1530
3310.00,0.1527
3309.00,0.1524
3308.00,0.1521
3307.00,0.1518
3306.00,0.1514
3305.00,0.1511
3304.00,0.1507
3303.00,0.1503
3302.00,0.1499
3301.00,0.1495
3300.00,0.1491
3299.00,0.1487
3298.00,0.1484
3297.00,0.1481
3296.00,0.1478
3295.00,0.1475
3294.00,0.1472
3293.00,0.1468
3292.00,0.1465
3291.00,0.1462
3290.00,0.1458
3289.00,0.1455
3288.00,0.1451
3287.00,0.1447
3286.00,0.1444
3285.00,0.1440
3284.00,0.1436
3283.00,0.1433
3282.00,0.1429
3281.00,0.1426
3280.00,0.1423
3279.00,0.1420
3278.00,0.1416
3277.00,0.1413
3276.00,0.1409
3275.00,0.1406
3274.00,0.1402
3273.00,0.1399
3272.00,0.1395
3271.00,0.1391
3270.00,0.1387
3269.00,0.1383
3268.00,0.1379
3267.00,0.1375
3266.00,0.1370
3265.00,0.1366
3264.00,0.1362
3263.00,0.1358
3262.00,0.1355
3261.00,0.1351
3260.00,0.1348
3259.00,0.1344
3258.00,0.1340
3257.00,0.1336
3256.00,0.1332
3255.00,0.1328
3254.00,0.1323
3253.00,0.1319
3252.00,0.1314
3251.00,0.1310
3250.00,0.1306
3249.00,0.1302
3248.00,0.1297
3247.00,0.1292
3246.00,0.1287
3245.00,0.1283
3244.00,0.1278
3243.00,0.1274
3242.00,0.1269
3241.00,0.1263
3240.00,0.1258
3239.00,0.1253
3238.00,0.1249
3237.00,0.1245
3236.00,0.1240
3235.00,0.1235
3234.00,0.1230
3233.00,0.1225
3232.00,0.1219
3231.00,0.1214
3230.00,0.1209
3229.00,0.1203
3228.00,0.1198
3227.00,0.1192
3226.00,0.1186
3225.00,0.1181
3224.00,0.1175
3223.00,0.1170
3222.00,0.1165
3221.00,0.1160
3220.00,0.1154
3219.00,0.1148
3218.00,0.1142
3217.00,0.1137
3216.00,0.1131
3215.00,0.1125
3214.00,0.1120
3213.00,0.1114
3212.00,0.1108
3211.00,0.1102
3210.00,0.1096
3209.00,0.1090
3208.00,0.1085
3207.00,0.1079
3206.00,0.1072
3205.00,0.1066
3204.00,0.1060
3203.00,0.1054
3202.00,0.1047
3201.00,0.1041
3200.00,0.1035
3199.00,0.1029
3198.00,0.1023
3197.00,0.1017
3196.00,0.1011
3195.00,0.1005
3194.00,0.0999
3193.00,0.0992
3192.00,0.0986
3191.00,0.0980
3190.00,0.0974
3189.00,0.0968
3188.00,0.0962
3187.00,0.0956
3186.00,0.0950
3185.00,0.0944
3184.00,0.0938
3183.00,0.0931
3182.00,0.0925
3181.00,0.0918
3180.00,0.0912
3179.00,0.0907
3178.00,0.0901
3177.00,0.0896
3176.00,0.0890
3175.00,0.0885
3174.00,0.0879
3173.00,0.0873
3172.00,0.0867
3171.00,0.0860
3170.00,0.0854
3169.00,0.0848
3168.00,0.0842
3167.00,0.0837
3166.00,0.0831
3165.00,0.0825
3164.00,0.0820
3163.00,0.0814
3162.00,0.0808
3161.00,0.0803
3160.00,0.0798
3159.00,0.0793
3158.00,0.0788
3157.00,0.0782
3156.00,0.0777
3155.00,0.0771
3154.00,0.0766
3153.00,0.0760
3152.00,0.0755
3151.00,0.0750
3150.00,0.0745
3149.00,0.0739
3148.00,0.0734
3147.00,0.0729
3146.00,0.0724
3145.00,0.0719
3144.00,0.0714
3143.00,0.0709
3142.00,0.0704
3141.00,0.0699
3140.00,0.0694
3139.00,0.0688
3138.00,0.0683
3137.00,0.0678
3136.00,0.0674
3135.00,0.0669
3134.00,0.0665
3133.00,0.0660
3132.00,0.0656
3131.00,0.0651
3130.00,0.0647
3129.00,0.0643
3128.00,0.0638
3127.00,0.0634
3126.00,0.0630
3125.00,0.0625
3124.00,0.0621
3123.00,0.0617
3122.00,0.0612
3121.00,0.0608
3120.00,0.0603
3119.00,0.0599
3118.00,0.0595
3117.00,0.0591
3116.00,0.0586
3115.00,0.0582
3114.00,0.0578
3113.00,0.0574
3112.00,0.0569
3111.00,0.0565
3110.00,0.0561
3109.00,0.0558
3108.00,0.0554
3107.00,0.0550
3106.00,0.0547
3105.00,0.0543
3104.00,0.0539
3103.00,0.0536
3102.00,0.0532
3101.00,0.0529
3100.00,0.0525
3099.00,0.0522
3098.00,0.0518
3097.00,0.0514
3096.00,0.0510
3095.00,0.0507
3094.00,0.0503
3093.00,0.0500
3092.00,0.0497
3091.00,0.0493
3090.00,0.0490
3089.00,0.0486
3088.00,0.0483
3087.00,0.0480
3086.00,0.0477
3085.00,0.0474
3084.00,0.0471
3083.00,0.0468
3082.00,0.0465
3081.00,0.0462
3080.00,0.0459
3079.00,0.0457
3078.00,0.0454
3077.00,0.0451
3076.00,0.0448
3075.00,0.0444
3074.00,0.0441
3073.00,0.0437
3072.00,0.0435
3071.00,0.0432
3070.00,0.0429
3069.00,0.0427
3068.00,0.0424
3067.00,0.0421
3066.00,0.0419
3065.00,0.0416
3064.00,0.0414
3063.00,0.0411
3062.00,0.0408
3061.00,0.0405
3060.00,0.0403
3059.00,0.0400
3058.00,0.0398
3057.00,0.0395
3056.00,0.0393
3055.00,0.0391
3054.00,0.0388
3053.00,0.0386
3052.00,0.0383
3051.00,0.0381
3050.00,0.0378
3049.00,0.0376
3048.00,0.0374
3047.00,0.0372
3046.00,0.0369
3045.00,0.0367
3044.00,0.0364
3043.00,0.0362
3042.00,0.0360
3041.00,0.0358
3040.00,0.0357
3039.00,0.0355
3038.00,0.0353
3037.00,0.0350
3036.00,0.0348
3035.00,0.0346
3034.00,0.0344
3033.00,0.0343
3032.00,0.0341
3031.00,0.0340
3030.00,0.0338
3029.00,0.0336
3028.00,0.0335
3027.00,0.0333
3026.00,0.0331
3025.00,0.0329
3024.00,0.0327
3023.00,0.0326
3022.00,0.0324
3021.00,0.0322
3020.00,0.0321
3019.00,0.0319
3018.00,0.0318
3017.00,0.0317
3016.00,0.0316
3015.00,0.0315
3014.00,0.0314
3013.00,0.0313
3012.00,0.0311
3011.00,0.0310
3010.00,0.0309
3009.00,0.0308
3008.00,0.0306
3007.00,0.0305
3006.00,0.0304
3005.00,0.0303
3004.00,0.0302
3003.00,0.0301
3002.00,0.0300
3001.00,0.0300
3000.00,0.0299
2999.00,0.0299
2998.00,0.0298
2997.00,0.0297
2996.00,0.0296
2995.00,0.0295
2994.00,0.0295
2993.00,0.0294
2992.00,0.0294
2991.00,0.0294
2990.00,0.0294
2989.00,0.0293
2988.00,0.0293
2987.00,0.0294
2986.00,0.0294
2985.00,0.0294
2984.00,0.0295
2983.00,0.0295
2982.00,0.0295
2981.00,0.0296
2980.00,0.0296
2979.00,0.0296
2978.00,0.0297
2977.00,0.0298
2976.00,0.0299
2975.00,0.0299
2974.00,0.0300
2973.00,0.0301
2972.00,0.0302
2971.00,0.0303
2970.00,0.0304
2969.00,0.0304
2968.00,0.0305
2967.00,0.0305
2966.00,0.0306
2965.00,0.0307
2964.00,0.0308
2963.00,0.0309
2962.00,0.0310
2961.00,0.0311
2960.00,0.0312
2959.00,0.0313
2958.00,0.0314
2957.00,0.0314
2956.00,0.0314
2955.00,0.0314
2954.00,0.0314
2953.00,0.0315
2952.00,0.0315
2951.00,0.0316
2950.00,0.0316
2949.00,0.0317
2948.00,0.0317
2947.00,0.0317
2946.00,0.0317
2945.00,0.0318
2944.00,0.0319
2943.00,0.0320
2942.00,0.0322
2941.00,0.0324
2940.00,0.0325
2939.00,0.0327
2938.00,0.0328
2937.00,0.0330
2936.00,0.0332
2935.00,0.0335
2934.00,0.0337
2933.00,0.0339
2932.00,0.0342
2931.00,0.0344
2930.00,0.0346
2929.00,0.0349
2928.00,0.0351
2927.00,0.0353
2926.00,0.0355
2925.00,0.0357
2924.00,0.0359
2923.00,0.0361
2922.00,0.0362
2921.00,0.0363
2920.00,0.0363
2919.00,0.0362
2918.00,0.0359
2917.00,0.0356
2916.00,0.0352
2915.00,0.0348
2914.00,0.0343
2913.00,0.0338
2912.00,0.0333
2911.00,0.0329
2910.00,0.0325
2909.00,0.0322
2908.00,0.0319
2907.00,0.0316
2906.00,0.0313
2905.00,0.0311
2904.00,0.0308
2903.00,0.0306
2902.00,0.0304
2901.00,0.0302
2900.00,0.0299
2899.00,0.0297
2898.00,0.0295
2897.00,0.0292
2896.00,0.0290
2895.00,0.0288
2894.00,0.0287
2893.00,0.0285
2892.00,0.0283
2891.00,0.0281
2890.00,0.0278
2889.00,0.0276
2888.00,0.0274
2887.00,0.0272
2886.00,0.0270
2885.00,0.0268
2884.00,0.0266
2883.00,0.0265
2882.00,0.0263
2881.00,0.0262
2880.00,0.0261
2879.00,0.0259
2878.00,0.0258
2877.00,0.0256
2876.00,0.0254
2875.00,0.0253
2874.00,0.0252
2873.00,0.0251
2872.00,0.0250
2871.00,0.0249
2870.00,0.0248
2869.00,0.0247
2868.00,0.0245
2867.00,0.0244
2866.00,0.0243
2865.00,0.0242
2864.00,0.0242
2863.00,0.0241
2862.00,0.0241
2861.00,0.0241
2860.00,0.0242
2859.00,0.0243
2858.00,0.0245
2857.00,0.0246
2856.00,0.0248
2855.00,0.0249
2854.00,0.0251
2853.00,0.0252
2852.00,0.0252
2851.00,0.0251
2850.00,0.0249
2849.00,0.0245
2848.00,0.0241
2847.00,0.0236
2846.00,0.0230
2845.00,0.0225
2844.00,0.0219
2843.00,0.0215
2842.00,0.0210
2841.00,0.0207
2840.00,0.0204
2839.00,0.0201
2838.00,0.0199
2837.00,0.0197
2836.00,0.0195
2835.00,0.0194
2834.00,0.0193
2833.00,0.0191
2832.00,0.0190
2831.00,0.0188
2830.00,0.0187
2829.00,0.0186
2828.00,0.0185
2827.00,0.0184
2826.00,0.0183
2825.00,0.0182
2824.00,0.0181
2823.00,0.0180
2822.00,0.0178
2821.00,0.0177
2820.00,0.0176
2819.00,0.0175
2818.00,0.0174
2817.00,0.0174
2816.00,0.0173
2815.00,0.0173
2814.00,0.0172
2813.00,0.0171
2812.00,0.0171
2811.00,0.0170
2810.00,0.0169
2809.00,0.0168
2808.00,0.0167
2807.00,0.0166
2806.00,0.0165
2805.00,0.0165
2804.00,0.0164
2803.00,0.0164
2802.00,0.0164
2801.00,0.0163
2800.00,0.0162
2799.00,0.0162
2798.00,0.0161
2797.00,0.0160
2796.00,0.0160
2795.00,0.0160
2794.00,0.0160
2793.00,0.0160
2792.00,0.0159
2791.00,0.0158
2790.00,0.0157
2789.00,0.0157
2788.00,0.0156
2787.00,0.0156
2786.00,0.0155
2785.00,0.0155
2784.00,0.0154
2783.00,0.0154
2782.00,0.0153
2781.00,0.0152
2780.00,0.0152
2779.00,0.0152
2778.00,0.0152
2777.00,0.0152
2776.00,0.0151
2775.00,0.0151
2774.00,0.0150
2773.00,0.0150
2772.00,0.0149
2771.00,0.0149
2770.00,0.0148
2769.00,0.0148
2768.00,0.0148
2767.00,0.0148
2766.00,0.0148
2765.00,0.0147
2764.00,0.0147
2763.00,0.0146
2762.00,0.0146
2761.00,0.0145
2760.00,0.0144
2759.00,0.0144
2758.00,0.0144
2757.00,0.0144
2756.00,0.0144
2755.00,0.0144
2754.00,0.0144
2753.00,0.0143
2752.00,0.0143
2751.00,0.0142
2750.00,0.0142
2749.00,0.0141
2748.00,0.0141
2747.00,0.0141
2746.00,0.0141
2745.00,0.0141
2744.00,0.0141
2743.00,0.0140
2742.00,0.0140
2741.00,0.0140
2740.00,0.0139
2739.00,0.0139
2738.00,0.0139
2737.00,0.0139
2736.00,0.0138
2735.00,0.0138
2734.00,0.0138
2733.00,0.0138
2732.00,0.0138
2731.00,0.0138
2730.00,0.0138
2729.00,0.0138
2728.00,0.0137
2727.00,0.0137
2726.00,0.0136
2725.00,0.0135
2724.00,0.0135
2723.00,0.0135
2722.00,0.0135
2721.00,0.0134
2720.00,0.0134
2719.00,0.0134
2718.00,0.0134
2717.00,0.0133
2716.00,0.0133
2715.00,0.0133
2714.00,0.0132
2713.00,0.0132
2712.00,0.0132
2711.00,0.0132
2710.00,0.0132
2709.00,0.0132
2708.00,0.0132
2707.00,0.0131
2706.00,0.0131
2705.00,0.0130
2704.00,0.0130
2703.00,0.0130
2702.00,0.0130
2701.00,0.0129
2700.00,0.0129
2699.00,0.0129
2698.00,0.0129
2697.00,0.0129
2696.00,0.0129
2695.00,0.0129
2694.00,0.0128
2693.00,0.0128
2692.00,0.0127
2691.00,0.0127
2690.00,0.0126
2689.00,0.0126
2688.00,0.0126
2687.00,0.0127
2686.00,0.0126
2685.00,0.0126
2684.00,0.0126
2683.00,0.0126
2682.00,0.0125
2681.00,0.0125
2680.00,0.0125
2679.00,0.0125
2678.00,0.0125
2677.00,0.0124
2676.00,0.0124
2675.00,0.0124
2674.00,0.0124
2673.00,0.0124
2672.00,0.0124
2671.00,0.0124
2670.00,0.0123
2669.00,0.0123
2668.00,0.0123
2667.00,0.0123
2666.00,0.0123
2665.00,0.0124
2664.00,0.0124
2663.00,0.0125
2662.00,0.0125
2661.00,0.0126
2660.00,0.0126
2659.00,0.0126
2658.00,0.0127
2657.00,0.0127
2656.00,0.0127
2655.00,0.0127
2654.00,0.0127
2653.00,0.0127
2652.00,0.0126
2651.00,0.0126
2650.00,0.0125
2649.00,0.0125
2648.00,0.0125
2647.00,0.0125
2646.00,0.0124
2645.00,0.0124
2644.00,0.0123
2643.00,0.0123
2642.00,0.0122
2641.00,0.0122
2640.00,0.0122
2639.00,0.0122
2638.00,0.0122
2637.00,0.0121
2636.00,0.0120
2635.00,0.0120
2634.00,0.0119
2633.00,0.0119
2632.00,0.0119
2631.00,0.0119
2630.00,0.0118
2629.00,0.0118
2628.00,0.0117
2627.00,0.0117
2626.00,0.0117
2625.00,0.0116
2624.00,0.0116
2623.00,0.0116
2622.00,0.0115
2621.00,0.0115
2620.00,0.0115
2619.00,0.0114
2618.00,0.0114
2617.00,0.0113
2616.00,0.0113
2615.00,0.0112
2614.00,0.0112
2613.00,0.0112
2612.00,0.0111
2611.00,0.0111
2610.00,0.0110
2609.00,0.0110
2608.00,0.0110
2607.00,0.0110
2606.00,0.0110
2605.00,0.0109
2604.00,0.0109
2603.00,0.0108
2602.00,0.0108
2601.00,0.0108
2600.00,0.0107
2599.00,0.0107
2598.00,0.0107
2597.00,0.0107
2596.00,0.0107
2595.00,0.0107
2594.00,0.0107
2593.00,0.0106
2592.00,0.0106
2591.00,0.0105
2590.00,0.0104
2589.00,0.0104
2588.00,0.0104
2587.00,0.0105
2586.00,0.0105
2585.00,0.0105
2584.00,0.0105
2583.00,0.0105
2582.00,0.0105
2581.00,0.0104
2580.00,0.0104
2579.00,0.0103
2578.00,0.0103
2577.00,0.0103
2576.00,0.0103
2575.00,0.0103
2574.00,0.0103
2573.00,0.0102
2572.00,0.0102
2571.00,0.0101
2570.00,0.0101
2569.00,0.0101
2568.00,0.0100
2567.00,0.0100
2566.00,0.0100
2565.00,0.0100
2564.00,0.0100
2563.00,0.0100
2562.00,0.0100
2561.00,0.0100
2560.00,0.0099
2559.00,0.0099
2558.00,0.0099
2557.00,0.0098
2556.00,0.0099
2555.00,0.0099
2554.00,0.0099
2553.00,0.0099
2552.00,0.0099
2551.00,0.0099
2550.00,0.0098
2549.00,0.0098
2548.00,0.0097
2547.00,0.0097
2546.00,0.0097
2545.00,0.0097
2544.00,0.0096
2543.00,0.0096
2542.00,0.0096
2541.00,0.0096
2540.00,0.0096
2539.00,0.0097
2538.00,0.0097
2537.00,0.0097
2536.00,0.0097
2535.00,0.0097
2534.00,0.0096
2533.00,0.0096
2532.00,0.0096
2531.00,0.0096
2530.00,0.0096
2529.00,0.0096
2528.00,0.0095
2527.00,0.0095
2526.00,0.0095
2525.00,0.0095
2524.00,0.0095
2523.00,0.0096
2522.00,0.0096
2521.00,0.0095
2520.00,0.0094
2519.00,0.0094
2518.00,0.0094
2517.00,0.0094
2516.00,0.0095
2515.00,0.0095
2514.00,0.0095
2513.00,0.0094
2512.00,0.0094
2511.00,0.0095
2510.00,0.0095
2509.00,0.0095
2508.00,0.0095
2507.00,0.0094
2506.00,0.0094
2505.00,0.0094
2504.00,0.0093
2503.00,0.0093
2502.00,0.0093
2501.00,0.0093
2500.00,0.0093
2499.00,0.0093
2498.00,0.0093
2497.00,0.0094
2496.00,0.0094
2495.00,0.0094
2494.00,0.0095
2493.00,0.0095
2492.00,0.0095
2491.00,0.0095
2490.00,0.0095
2489.00,0.0095
2488.00,0.0094
2487.00,0.0093
2486.00,0.0093
2485.00,0.0092
2484.00,0.0092
2483.00,0.0092
2482.00,0.0092
2481.00,0.0093
2480.00,0.0093
2479.00,0.0093
2478.00,0.0093
2477.00,0.0093
2476.00,0.0093
2475.00,0.0093
2474.00,0.0093
2473.00,0.0092
2472.00,0.0092
2471.00,0.0092
2470.00,0.0093
2469.00,0.0093
2468.00,0.0093
2467.00,0.0092
2466.00,0.0092
2465.00,0.0092
2464.00,0.0093
2463.00,0.0093
2462.00,0.0094
2461.00,0.0094
2460.00,0.0094
2459.00,0.0094
2458.00,0.0094
2457.00,0.0094
2456.00,0.0093
2455.00,0.0093
2454.00,0.0093
2453.00,0.0093
2452.00,0.0093
2451.00,0.0093
2450.00,0.0093
2449.00,0.0093
2448.00,0.0092
2447.00,0.0091
2446.00,0.0091
2445.00,0.0092
2444.00,0.0093
2443.00,0.0093
2442.00,0.0093
2441.00,0.0093
2440.00,0.0092
2439.00,0.0092
2438.00,0.0091
2437.00,0.0091
2436.00,0.0091
2435.00,0.0091
2434.00,0.0091
2433.00,0.0091
2432.00,0.0091
2431.00,0.0091
2430.00,0.0091
2429.00,0.0092
2428.00,0.0092
2427.00,0.0092
2426.00,0.0092
2425.00,0.0092
2424.00,0.0091
2423.00,0.0091
2422.00,0.0091
2421.00,0.0091
2420.00,0.0091
2419.00,0.0091
2418.00,0.0091
2417.00,0.0090
2416.00,0.0090
2415.00,0.0090
2414.00,0.0091
2413.00,0.0091
2412.00,0.0092
2411.00,0.0092
2410.00,0.0092
2409.00,0.0091
2408.00,0.0091
2407.00,0.0090
2406.00,0.0090
2405.00,0.0089
2404.00,0.0089
2403.00,0.0088
2402.00,0.0089
2401.00,0.0089
2400.00,0.0089
2399.00,0.0089
2398.00,0.0089
2397.00,0.0089
2396.00,0.0089
2395.00,0.0090
2394.00,0.0090
2393.00,0.0090
2392.00,0.0090
2391.00,0.0090
2390.00,0.0090
2389.00,0.0090
2388.00,0.0090
2387.00,0.0091
2386.00,0.0091
2385.00,0.0091
2384.00,0.0091
2383.00,0.0092
2382.00,0.0092
2381.00,0.0092
2380.00,0.0092
2379.00,0.0092
2378.00,0.0092
2377.00,0.0092
2376.00,0.0093
2375.00,0.0093
2374.00,0.0094
2373.00,0.0094
2372.00,0.0095
2371.00,0.0095
2370.00,0.0095
2369.00,0.0095
2368.00,0.0096
2367.00,0.0096
2366.00,0.0096
2365.00,0.0096
2364.00,0.0097
2363.00,0.0098
2362.00,0.0099
2361.00,0.0100
2360.00,0.0101
2359.00,0.0101
2358.00,0.0102
2357.00,0.0102
2356.00,0.0102
2355.00,0.0101
2354.00,0.0101
2353.00,0.0100
2352.00,0.0101
2351.00,0.0103
2350.00,0.0104
2349.00,0.0105
2348.00,0.0105
2347.00,0.0105
2346.00,0.0106
2345.00,0.0107
2344.00,0.0108
2343.00,0.0109
2342.00,0.0109
2341.00,0.0110
2340.00,0.0110
2339.00,0.0110
2338.00,0.0111
2337.00,0.0111
2336.00,0.0111
2335.00,0.0110
2334.00,0.0110
2333.00,0.0109
2332.00,0.0110
2331.00,0.0110
2330.00,0.0111
2329.00,0.0113
2328.00,0.0116
2327.00,0.0120
2326.00,0.0126
2325.00,0.0131
2324.00,0.0135
2323.00,0.0135
2322.00,0.0133
2321.00,0.0130
2320.00,0.0126
2319.00,0.0124
2318.00,0.0123
2317.00,0.0122
2316.00,0.0122
2315.00,0.0122
2314.00,0.0121
2313.00,0.0120
2312.00,0.0120
2311.00,0.0119
2310.00,0.0118
2309.00,0.0118
2308.00,0.0119
2307.00,0.0119
2306.00,0.0119
2305.00,0.0119
2304.00,0.0119
2303.00,0.0120
2302.00,0.0121
2301.00,0.0121
2300.00,0.0122
2299.00,0.0122
2298.00,0.0122
2297.00,0.0122
2296.00,0.0123
2295.00,0.0123
2294.00,0.0123
2293.00,0.0124
2292.00,0.0125
2291.00,0.0126
2290.00,0.0127
2289.00,0.0129
2288.00,0.0130
2287.00,0.0131
2286.00,0.0131
2285.00,0.0131
2284.00,0.0130
2283.00,0.0129
2282.00,0.0128
2281.00,0.0127
2280.00,0.0126
2279.00,0.0126
2278.00,0.0125
2277.00,0.0124
2276.00,0.0123
2275.00,0.0122
2274.00,0.0121
2273.00,0.0121
2272.00,0.0121
2271.00,0.0121
2270.00,0.0120
2269.00,0.0120
2268.00,0.0119
2267.00,0.0119
2266.00,0.0118
2265.00,0.0117
2264.00,0.0117
2263.00,0.0117
2262.00,0.0116
2261.00,0.0116
2260.00,0.0117
2259.00,0.0117
2258.00,0.0118
2257.00,0.0118
2256.00,0.0117
2255.00,0.0115
2254.00,0.0113
2253.00,0.0112
2252.00,0.0112
2251.00,0.0112
2250.00,0.0113
2249.00,0.0113
2248.00,0.0113
2247.00,0.0113
2246.00,0.0113
2245.00,0.0115
2244.00,0.0116
2243.00,0.0117
2242.00,0.0117
2241.00,0.0117
2240.00,0.0117
2239.00,0.0118
2238.00,0.0118
2237.00,0.0118
2236.00,0.0117
2235.00,0.0116
2234.00,0.0115
2233.00,0.0115
2232.00,0.0115
2231.00,0.0117
2230.00,0.0117
2229.00,0.0116
2228.00,0.0115
2227.00,0.0114
2226.00,0.0114
2225.00,0.0115
2224.00,0.0118
2223.00,0.0120
2222.00,0.0121
2221.00,0.0120
2220.00,0.0119
2219.00,0.0119
2218.00,0.0119
2217.00,0.0120
2216.00,0.0121
2215.00,0.0121
2214.00,0.0119
2213.00,0.0117
2212.00,0.0115
2211.00,0.0114
2210.00,0.0113
2209.00,0.0112
2208.00,0.0111
2207.00,0.0111
2206.00,0.0111
2205.00,0.0112
2204.00,0.0114
2203.00,0.0116
2202.00,0.0118
2201.00,0.0118
2200.00,0.0117
2199.00,0.0117
2198.00,0.0117
2197.00,0.0117
2196.00,0.0118
2195.00,0.0119
2194.00,0.0121
2193.00,0.0122
2192.00,0.0122
2191.00,0.0120
2190.00,0.0119
2189.00,0.0119
2188.00,0.0122
2187.00,0.0125
2186.00,0.0126
2185.00,0.0125
2184.00,0.0123
2183.00,0.0120
2182.00,0.0116
2181.00,0.0112
2180.00,0.0110
2179.00,0.0110
2178.00,0.0110
2177.00,0.0111
2176.00,0.0112
2175.00,0.0115
2174.00,0.0117
2173.00,0.0120
2172.00,0.0122
2171.00,0.0123
2170.00,0.0123
2169.00,0.0124
2168.00,0.0125
2167.00,0.0125
2166.00,0.0125
2165.00,0.0126
2164.00,0.0130
2163.00,0.0133
2162.00,0.0133
2161.00,0.0126
2160.00,0.0111
2159.00,0.0091
2158.00,0.0071
2157.00,0.0060
2156.00,0.0057
2155.00,0.0060
2154.00,0.0065
2153.00,0.0071
2152.00,0.0076
2151.00,0.0080
2150.00,0.0082
2149.00,0.0085
2148.00,0.0089
2147.00,0.0092
2146.00,0.0093
2145.00,0.0093
2144.00,0.0093
2143.00,0.0093
2142.00,0.0093
2141.00,0.0093
2140.00,0.0095
2139.00,0.0096
2138.00,0.0098
2137.00,0.0100
2136.00,0.0100
2135.00,0.0098
2134.00,0.0095
2133.00,0.0095
2132.00,0.0096
2131.00,0.0099
2130.00,0.0102
2129.00,0.0105
2128.00,0.0108
2127.00,0.0111
2126.00,0.0114
2125.00,0.0116
2124.00,0.0117
2123.00,0.0119
2122.00,0.0120
2121.00,0.0123
2120.00,0.0125
2119.00,0.0127
2118.00,0.0130
2117.00,0.0132
2116.00,0.0135
2115.00,0.0137
2114.00,0.0138
2113.00,0.0139
2112.00,0.0138
2111.00,0.0137
2110.00,0.0136
2109.00,0.0135
2108.00,0.0135
2107.00,0.0135
2106.00,0.0134
2105.00,0.0134
2104.00,0.0134
2103.00,0.0134
2102.00,0.0134
2101.00,0.0133
2100.00,0.0133
2099.00,0.0133
2098.00,0.0133
2097.00,0.0133
2096.00,0.0132
2095.00,0.0129
2094.00,0.0127
2093.00,0.0125
2092.00,0.0127
2091.00,0.0130
2090.00,0.0133
2089.00,0.0136
2088.00,0.0138
2087.00,0.0138
2086.00,0.0137
2085.00,0.0136
2084.00,0.0134
2083.00,0.0133
2082.00,0.0132
2081.00,0.0133
2080.00,0.0134
2079.00,0.0136
2078.00,0.0136
2077.00,0.0134
2076.00,0.0132
2075.00,0.0130
2074.00,0.0129
2073.00,0.0130
2072.00,0.0133
2071.00,0.0134
2070.00,0.0133
2069.00,0.0132
2068.00,0.0129
2067.00,0.0127
2066.00,0.0124
2065.00,0.0123
2064.00,0.0122
2063.00,0.0122
2062.00,0.0122
2061.00,0.0122
2060.00,0.0122
2059.00,0.0122
2058.00,0.0122
2057.00,0.0123
2056.00,0.0122
2055.00,0.0122
2054.00,0.0122
2053.00,0.0126
2052.00,0.0131
2051.00,0.0134
2050.00,0.0132
2049.00,0.0126
2048.00,0.0119
2047.00,0.0114
2046.00,0.0111
2045.00,0.0109
2044.00,0.0109
2043.00,0.0109
2042.00,0.0109
2041.00,0.0109
2040.00,0.0110
2039.00,0.0110
2038.00,0.0109
2037.00,0.0108
2036.00,0.0107
2035.00,0.0105
2034.00,0.0102
2033.00,0.0098
2032.00,0.0095
2031.00,0.0092
2030.00,0.0089
2029.00,0.0087
2028.00,0.0088
2027.00,0.0090
2026.00,0.0092
2025.00,0.0094
2024.00,0.0095
2023.00,0.0097
2022.00,0.0097
2021.00,0.0096
2020.00,0.0095
2019.00,0.0093
2018.00,0.0091
2017.00,0.0091
2016.00,0.0094
2015.00,0.0097
2014.00,0.0100
2013.00,0.0100
2012.00,0.0099
2011.00,0.0097
2010.00,0.0093
2009.00,0.0088
2008.00,0.0083
2007.00,0.0078
2006.00,0.0075
2005.00,0.0074
2004.00,0.0077
2003.00,0.0082
2002.00,0.0086
2001.00,0.0089
2000.00,0.0091
1999.00,0.0093
1998.00,0.0095
1997.00,0.0096
1996.00,0.0098
1995.00,0.0101
1994.00,0.0103
1993.00,0.0105
1992.00,0.0106
1991.00,0.0105
1990.00,0.0103
1989.00,0.0102
1988.00,0.0102
1987.00,0.0104
1986.00,0.0107
1985.00,0.0110
1984.00,0.0112
1983.00,0.0113
1982.00,0.0113
1981.00,0.0114
1980.00,0.0113
1979.00,0.0110
1978.00,0.0104
1977.00,0.0097
1976.00,0.0091
1975.00,0.0087
1974.00,0.0084
1973.00,0.0082
1972.00,0.0083
1971.00,0.0086
1970.00,0.0088
1969.00,0.0090
1968.00,0.0091
1967.00,0.0090
1966.00,0.0088
1965.00,0.0085
1964.00,0.0083
1963.00,0.0082
1962.00,0.0082
1961.00,0.0082
1960.00,0.0081
1959.00,0.0079
1958.00,0.0078
1957.00,0.0078
1956.00,0.0080
1955.00,0.0082
1954.00,0.0083
1953.00,0.0086
1952.00,0.0087
1951.00,0.0088
1950.00,0.0087
1949.00,0.0087
1948.00,0.0088
1947.00,0.0090
1946.00,0.0092
1945.00,0.0093
1944.00,0.0093
1943.00,0.0092
1942.00,0.0090
1941.00,0.0087
1940.00,0.0086
1939.00,0.0086
1938.00,0.0087
1937.00,0.0089
1936.00,0.0090
1935.00,0.0090
1934.00,0.0090
1933.00,0.0090
1932.00,0.0092
1931.00,0.0093
1930.00,0.0093
1929.00,0.0094
1928.00,0.0094
1927.00,0.0093
1926.00,0.0093
1925.00,0.0094
1924.00,0.0095
1923.00,0.0097
1922.00,0.0097
1921.00,0.0099
1920.00,0.0100
1919.00,0.0101
1918.00,0.0101
1917.00,0.0101
1916.00,0.0101
1915.00,0.0102
1914.00,0.0101
1913.00,0.0100
1912.00,0.0099
1911.00,0.0099
1910.00,0.0099
1909.00,0.0099
1908.00,0.0099
1907.00,0.0098
1906.00,0.0098
1905.00,0.0097
1904.00,0.0097
1903.00,0.0097
1902.00,0.0096
1901.00,0.0096
1900.00,0.0096
1899.00,0.0096
1898.00,0.0097
1897.00,0.0098
1896.00,0.0099
1895.00,0.0098
1894.00,0.0097
1893.00,0.0098
1892.00,0.0099
1891.00,0.0100
1890.00,0.0100
1889.00,0.0099
1888.00,0.0099
1887.00,0.0099
1886.00,0.0099
1885.00,0.0099
1884.00,0.0099
1883.00,0.0099
1882.00,0.0099
1881.00,0.0100
1880.00,0.0100
1879.00,0.0099
1878.00,0.0098
1877.00,0.0098
1876.00,0.0098
1875.00,0.0098
1874.00,0.0099
1873.00,0.0099
1872.00,0.0099
1871.00,0.0100
1870.00,0.0100
1869.00,0.0099
1868.00,0.0098
1867.00,0.0098
1866.00,0.0099
1865.00,0.0100
1864.00,0.0101
1863.00,0.0101
1862.00,0.0101
1861.00,0.0101
1860.00,0.0101
1859.00,0.0100
1858.00,0.0100
1857.00,0.0101
1856.00,0.0101
1855.00,0.0101
1854.00,0.0102
1853.00,0.0102
1852.00,0.0102
1851.00,0.0102
1850.00,0.0102
1849.00,0.0102
1848.00,0.0102
1847.00,0.0102
1846.00,0.0102
1845.00,0.0102
1844.00,0.0102
1843.00,0.0102
1842.00,0.0103
1841.00,0.0104
1840.00,0.0105
1839.00,0.0105
1838.00,0.0105
1837.00,0.0104
1836.00,0.0105
1835.00,0.0105
1834.00,0.0105
1833.00,0.0105
1832.00,0.0105
1831.00,0.0106
1830.00,0.0105
1829.00,0.0104
1828.00,0.0105
1827.00,0.0107
1826.00,0.0109
1825.00,0.0110
1824.00,0.0110
1823.00,0.0110
1822.00,0.0110
1821.00,0.0110
1820.00,0.0109
1819.00,0.0108
1818.00,0.0107
1817.00,0.0107
1816.00,0.0107
1815.00,0.0108
1814.00,0.0110
1813.00,0.0111
1812.00,0.0112
1811.00,0.0113
1810.00,0.0114
1809.00,0.0115
1808.00,0.0116
1807.00,0.0116
1806.00,0.0117
1805.00,0.0117
1804.00,0.0118
1803.00,0.0119
1802.00,0.0119
1801.00,0.0120
1800.00,0.0120
1799.00,0.0121
1798.00,0.0121
1797.00,0.0121
1796.00,0.0122
1795.00,0.0123
1794.00,0.0124
1793.00,0.0125
1792.00,0.0125
1791.00,0.0124
1790.00,0.0124
1789.00,0.0125
1788.00,0.0127
1787.00,0.0128
1786.00,0.0129
1785.00,0.0130
1784.00,0.0130
1783.00,0.0131
1782.00,0.0131
1781.00,0.0132
1780.00,0.0132
1779.00,0.0133
1778.00,0.0133
1777.00,0.0133
1776.00,0.0134
1775.00,0.0136
1774.00,0.0138
1773.00,0.0138
1772.00,0.0138
1771.00,0.0139
1770.00,0.0140
1769.00,0.0141
1768.00,0.0142
1767.00,0.0142
1766.00,0.0143
1765.00,0.0145
1764.00,0.0147
1763.00,0.0149
1762.00,0.0149
1761.00,0.0150
1760.00,0.0151
1759.00,0.0153
1758.00,0.0155
1757.00,0.0157
1756.00,0.0159
1755.00,0.0161
1754.00,0.0164
1753.00,0.0167
1752.00,0.0170
1751.00,0.0172
1750.00,0.0174
1749.00,0.0176
1748.00,0.0179
1747.00,0.0183
1746.00,0.0186
1745.00,0.0188
1744.00,0.0191
1743.00,0.0193
1742.00,0.0195
1741.00,0.0198
1740.00,0.0200
1739.00,0.0201
1738.00,0.0202
1737.00,0.0204
1736.00,0.0208
1735.00,0.0210
1734.00,0.0211
1733.00,0.0211
1732.00,0.0213
1731.00,0.0216
1730.00,0.0219
1729.00,0.0221
1728.00,0.0224
1727.00,0.0226
1726.00,0.0228
1725.00,0.0231
1724.00,0.0233
1723.00,0.0235
1722.00,0.0237
1721.00,0.0240
1720.00,0.0244
1719.00,0.0247
1718.00,0.0249
1717.00,0.0252
1716.00,0.0257
1715.00,0.0261
1714.00,0.0264
1713.00,0.0268
1712.00,0.0272
1711.00,0.0275
1710.00,0.0279
1709.00,0.0282
1708.00,0.0286
1707.00,0.0291
1706.00,0.0296
1705.00,0.0300
1704.00,0.0304
1703.00,0.0310
1702.00,0.0315
1701.00,0.0320
1700.00,0.0326
1699.00,0.0334
1698.00,0.0342
1697.00,0.0352
1696.00,0.0362
1695.00,0.0371
1694.00,0.0379
1693.00,0.0387
1692.00,0.0395
1691.00,0.0403
1690.00,0.0411
1689.00,0.0420
1688.00,0.0429
1687.00,0.0438
1686.00,0.0448
1685.00,0.0460
1684.00,0.0476
1683.00,0.0492
1682.00,0.0505
1681.00,0.0515
1680.00,0.0525
1679.00,0.0535
1678.00,0.0545
1677.00,0.0555
1676.00,0.0569
1675.00,0.0584
1674.00,0.0599
1673.00,0.0612
1672.00,0.0625
1671.00,0.0638
1670.00,0.0654
1669.00,0.0671
1668.00,0.0687
1667.00,0.0700
1666.00,0.0711
1665.00,0.0721
1664.00,0.0734
1663.00,0.0750
1662.00,0.0766
1661.00,0.0782
1660.00,0.0796
1659.00,0.0808
1658.00,0.0818
1657.00,0.0826
1656.00,0.0833
1655.00,0.0842
1654.00,0.0855
1653.00,0.0878
1652.00,0.0900
1651.00,0.0912
1650.00,0.0917
1649.00,0.0921
1648.00,0.0928
1647.00,0.0939
1646.00,0.0953
1645.00,0.0963
1644.00,0.0970
1643.00,0.0974
1642.00,0.0977
1641.00,0.0979
1640.00,0.0980
1639.00,0.0980
1638.00,0.0980
1637.00,0.0980
1636.00,0.0982
1635.00,0.0986
1634.00,0.0987
1633.00,0.0985
1632.00,0.0980
1631.00,0.0974
1630.00,0.0966
1629.00,0.0957
1628.00,0.0949
1627.00,0.0940
1626.00,0.0931
1625.00,0.0921
1624.00,0.0910
1623.00,0.0897
1622.00,0.0884
1621.00,0.0872
1620.00,0.0859
1619.00,0.0846
1618.00,0.0831
1617.00,0.0813
1616.00,0.0797
1615.00,0.0782
1614.00,0.0770
1613.00,0.0756
1612.00,0.0742
1611.00,0.0727
1610.00,0.0713
1609.00,0.0698
1608.00,0.0684
1607.00,0.0670
1606.00,0.0657
1605.00,0.0644
1604.00,0.0631
1603.00,0.0619
1602.00,0.0607
1601.00,0.0596
1600.00,0.0584
1599.00,0.0574
1598.00,0.0563
1597.00,0.0553
1596.00,0.0544
1595.00,0.0534
1594.00,0.0526
1593.00,0.0517
1592.00,0.0508
1591.00,0.0500
1590.00,0.0493
1589.00,0.0486
1588.00,0.0479
1587.00,0.0472
1586.00,0.0467
1585.00,0.0461
1584.00,0.0456
1583.00,0.0452
1582.00,0.0448
1581.00,0.0444
1580.00,0.0440
1579.00,0.0437
1578.00,0.0434
1577.00,0.0429
1576.00,0.0424
1575.00,0.0418
1574.00,0.0414
1573.00,0.0410
1572.00,0.0407
1571.00,0.0403
1570.00,0.0398
1569.00,0.0393
1568.00,0.0389
1567.00,0.0386
1566.00,0.0384
1565.00,0.0381
1564.00,0.0377
1563.00,0.0374
1562.00,0.0373
1561.00,0.0371
1560.00,0.0366
1559.00,0.0360
1558.00,0.0358
1557.00,0.0358
1556.00,0.0359
1555.00,0.0358
1554.00,0.0357
1553.00,0.0355
1552.00,0.0355
1551.00,0.0354
1550.00,0.0352
1549.00,0.0350
1548.00,0.0349
1547.00,0.0348
1546.00,0.0348
1545.00,0.0347
1544.00,0.0345
1543.00,0.0344
1542.00,0.0342
1541.00,0.0340
1540.00,0.0337
1539.00,0.0333
1538.00,0.0330
1537.00,0.0329
1536.00,0.0327
1535.00,0.0325
1534.00,0.0322
1533.00,0.0318
1532.00,0.0315
1531.00,0.0313
1530.00,0.0312
1529.00,0.0310
1528.00,0.0309
1527.00,0.0307
1526.00,0.0304
1525.00,0.0302
1524.00,0.0301
1523.00,0.0300
1522.00,0.0299
1521.00,0.0297
1520.00,0.0296
1519.00,0.0296
1518.00,0.0296
1517.00,0.0295
1516.00,0.0294
1515.00,0.0293
1514.00,0.0293
1513.00,0.0292
1512.00,0.0291
1511.00,0.0290
1510.00,0.0290
1509.00,0.0291
1508.00,0.0290
1507.00,0.0289
1506.00,0.0287
1505.00,0.0286
1504.00,0.0285
1503.00,0.0286
1502.00,0.0286
1501.00,0.0286
1500.00,0.0285
1499.00,0.0285
1498.00,0.0285
1497.00,0.0285
1496.00,0.0286
1495.00,0.0287
1494.00,0.0288
1493.00,0.0290
1492.00,0.0292
1491.00,0.0294
1490.00,0.0295
1489.00,0.0298
1488.00,0.0300
1487.00,0.0303
1486.00,0.0305
1485.00,0.0308
1484.00,0.0311
1483.00,0.0315
1482.00,0.0318
1481.00,0.0322
1480.00,0.0326
1479.00,0.0330
1478.00,0.0334
1477.00,0.0337
1476.00,0.0340
1475.00,0.0344
1474.00,0.0348
1473.00,0.0354
1472.00,0.0360
1471.00,0.0365
1470.00,0.0369
1469.00,0.0372
1468.00,0.0375
1467.00,0.0377
1466.00,0.0379
1465.00,0.0381
1464.00,0.0382
1463.00,0.0383
1462.00,0.0384
1461.00,0.0385
1460.00,0.0386
1459.00,0.0387
1458.00,0.0389
1457.00,0.0392
1456.00,0.0394
1455.00,0.0396
1454.00,0.0397
1453.00,0.0398
1452.00,0.0398
1451.00,0.0398
1450.00,0.0399
1449.00,0.0399
1448.00,0.0400
1447.00,0.0400
1446.00,0.0401
1445.00,0.0403
1444.00,0.0404
1443.00,0.0406
1442.00,0.0408
1441.00,0.0409
1440.00,0.0411
1439.00,0.0413
1438.00,0.0416
1437.00,0.0419
1436.00,0.0422
1435.00,0.0424
1434.00,0.0427
1433.00,0.0429
1432.00,0.0431
1431.00,0.0432
1430.00,0.0433
1429.00,0.0435
1428.00,0.0436
1427.00,0.0438
1426.00,0.0440
1425.00,0.0441
1424.00,0.0442
1423.00,0.0442
1422.00,0.0443
1421.00,0.0443
1420.00,0.0444
1419.00,0.0444
1418.00,0.0445
1417.00,0.0445
1416.00,0.0446
1415.00,0.0446
1414.00,0.0446
1413.00,0.0445
1412.00,0.0445
1411.00,0.0445
1410.00,0.0444
1409.00,0.0444
1408.00,0.0443
1407.00,0.0443
1406.00,0.0442
1405.00,0.0441
1404.00,0.0440
1403.00,0.0439
1402.00,0.0438
1401.00,0.0436
1400.00,0.0434
1399.00,0.0433
1398.00,0.0431
1397.00,0.0431
1396.00,0.0430
1395.00,0.0429
1394.00,0.0429
1393.00,0.0430
1392.00,0.0431
1391.00,0.0433
1390.00,0.0435
1389.00,0.0439
1388.00,0.0443
1387.00,0.0449
1386.00,0.0456
1385.00,0.0463
1384.00,0.0469
1383.00,0.0476
1382.00,0.0482
1381.00,0.0488
1380.00,0.0494
1379.00,0.0499
1378.00,0.0503
1377.00,0.0506
1376.00,0.0508
1375.00,0.0510
1374.00,0.0512
1373.00,0.0512
1372.00,0.0512
1371.00,0.0511
1370.00,0.0509
1369.00,0.0508
1368.00,0.0506
1367.00,0.0504
1366.00,0.0502
1365.00,0.0500
1364.00,0.0499
1363.00,0.0498
1362.00,0.0497
1361.00,0.0496
1360.00,0.0495
1359.00,0.0495
1358.00,0.0494
1357.00,0.0493
1356.00,0.0492
1355.00,0.0490
1354.00,0.0489
1353.00,0.0487
1352.00,0.0485
1351.00,0.0482
1350.00,0.0479
1349.00,0.0476
1348.00,0.0473
1347.00,0.0469
1346.00,0.0466
1345.00,0.0463
1344.00,0.0460
1343.00,0.0458
1342.00,0.0457
1341.00,0.0456
1340.00,0.0455
1339.00,0.0455
1338.00,0.0454
1337.00,0.0454
1336.00,0.0453
1335.00,0.0452
1334.00,0.0451
1333.00,0.0450
1332.00,0.0449
1331.00,0.0447
1330.00,0.0447
1329.00,0.0446
1328.00,0.0446
1327.00,0.0446
1326.00,0.0447
1325.00,0.0448
1324.00,0.0449
1323.00,0.0450
1322.00,0.0452
1321.00,0.0452
1320.00,0.0453
1319.00,0.0454
1318.00,0.0455
1317.00,0.0456
1316.00,0.0458
1315.00,0.0458
1314.00,0.0459
1313.00,0.0459
1312.00,0.0460
1311.00,0.0460
1310.00,0.0461
1309.00,0.0461
1308.00,0.0463
1307.00,0.0464
1306.00,0.0466
1305.00,0.0468
1304.00,0.0470
1303.00,0.0473
1302.00,0.0476
1301.00,0.0480
1300.00,0.0484
1299.00,0.0489
1298.00,0.0494
1297.00,0.0500
1296.00,0.0507
1295.00,0.0515
1294.00,0.0524
1293.00,0.0534
1292.00,0.0544
1291.00,0.0554
1290.00,0.0566
1289.00,0.0577
1288.00,0.0590
1287.00,0.0602
1286.00,0.0616
1285.00,0.0630
1284.00,0.0646
1283.00,0.0662
1282.00,0.0679
1281.00,0.0697
1280.00,0.0714
1279.00,0.0732
1278.00,0.0750
1277.00,0.0769
1276.00,0.0788
1275.00,0.0807
1274.00,0.0827
1273.00,0.0847
1272.00,0.0867
1271.00,0.0887
1270.00,0.0905
1269.00,0.0923
1268.00,0.0940
1267.00,0.0956
1266.00,0.0971
1265.00,0.0985
1264.00,0.0999
1263.00,0.1011
1262.00,0.1023
1261.00,0.1034
1260.00,0.1044
1259.00,0.1053
1258.00,0.1062
1257.00,0.1069
1256.00,0.1077
1255.00,0.1083
1254.00,0.1089
1253.00,0.1094
1252.00,0.1099
1251.00,0.1103
1250.00,0.1107
1249.00,0.1111
1248.00,0.1115
1247.00,0.1119
1246.00,0.1124
1245.00,0.1128
1244.00,0.1134
1243.00,0.1139
1242.00,0.1145
1241.00,0.1152
1240.00,0.1159
1239.00,0.1165
1238.00,0.1172
1237.00,0.1179
1236.00,0.1185
1235.00,0.1192
1234.00,0.1197
1233.00,0.1202
1232.00,0.1206
1231.00,0.1210
1230.00,0.1213
1229.00,0.1215
1228.00,0.1216
1227.00,0.1217
1226.00,0.1217
1225.00,0.1216
1224.00,0.1214
1223.00,0.1212
1222.00,0.1209
1221.00,0.1206
1220.00,0.1203
1219.00,0.1198
1218.00,0.1193
1217.00,0.1187
1216.00,0.1180
1215.00,0.1172
1214.00,0.1163
1213.00,0.1154
1212.00,0.1144
1211.00,0.1135
1210.00,0.1125
1209.00,0.1114
1208.00,0.1103
1207.00,0.1092
1206.00,0.1080
1205.00,0.1068
1204.00,0.1056
1203.00,0.1044
1202.00,0.1033
1201.00,0.1024
1200.00,0.1015
1199.00,0.1008
1198.00,0.1004
1197.00,0.1001
1196.00,0.1000
1195.00,0.1000
1194.00,0.1001
1193.00,0.1002
1192.00,0.1003
1191.00,0.1002
1190.00,0.1000
1189.00,0.0998
1188.00,0.0995
1187.00,0.0992
1186.00,0.0989
1185.00,0.0988
1184.00,0.0987
1183.00,0.0987
1182.00,0.0989
1181.00,0.0993
1180.00,0.0998
1179.00,0.1005
1178.00,0.1014
1177.00,0.1024
1176.00,0.1036
1175.00,0.1048
1174.00,0.1062
1173.00,0.1078
1172.00,0.1097
1171.00,0.1117
1170.00,0.1141
1169.00,0.1166
1168.00,0.1193
1167.00,0.1220
1166.00,0.1249
1165.00,0.1278
1164.00,0.1308
1163.00,0.1336
1162.00,0.1363
1161.00,0.1387
1160.00,0.1409
1159.00,0.1428
1158.00,0.1445
1157.00,0.1460
1156.00,0.1471
1155.00,0.1479
1154.00,0.1484
1153.00,0.1486
1152.00,0.1485
1151.00,0.1481
1150.00,0.1475
1149.00,0.1468
1148.00,0.1458
1147.00,0.1447
1146.00,0.1433
1145.00,0.1420
1144.00,0.1407
1143.00,0.1394
1142.00,0.1383
1141.00,0.1375
1140.00,0.1370
1139.00,0.1368
1138.00,0.1371
1137.00,0.1379
1136.00,0.1391
1135.00,0.1409
1134.00,0.1430
1133.00,0.1455
1132.00,0.1481
1131.00,0.1507
1130.00,0.1532
1129.00,0.1555
1128.00,0.1575
1127.00,0.1592
1126.00,0.1606
1125.00,0.1615
1124.00,0.1620
1123.00,0.1623
1122.00,0.1625
1121.00,0.1626
1120.00,0.1628
1119.00,0.1629
1118.00,0.1631
1117.00,0.1634
1116.00,0.1638
1115.00,0.1640
1114.00,0.1642
1113.00,0.1644
1112.00,0.1645
1111.00,0.1647
1110.00,0.1648
1109.00,0.1651
1108.00,0.1653
1107.00,0.1655
1106.00,0.1656
1105.00,0.1658
1104.00,0.1660
1103.00,0.1664
1102.00,0.1668
1101.00,0.1673
1100.00,0.1678
1099.00,0.1684
1098.00,0.1690
1097.00,0.1696
1096.00,0.1702
1095.00,0.1706
1094.00,0.1710
1093.00,0.1714
1092.00,0.1719
1091.00,0.1724
1090.00,0.1731
1089.00,0.1740
1088.00,0.1752
1087.00,0.1767
1086.00,0.1783
1085.00,0.1802
1084.00,0.1823
1083.00,0.1846
1082.00,0.1872
1081.00,0.1902
1080.00,0.1933
1079.00,0.1965
1078.00,0.1996
1077.00,0.2026
1076.00,0.2054
1075.00,0.2080
1074.00,0.2104
1073.00,0.2126
1072.00,0.2147
1071.00,0.2167
1070.00,0.2185
1069.00,0.2202
1068.00,0.2214
1067.00,0.2220
1066.00,0.2220
1065.00,0.2215
1064.00,0.2205
1063.00,0.2191
1062.00,0.2177
1061.00,0.2163
1060.00,0.2152
1059.00,0.2145
1058.00,0.2143
1057.00,0.2145
1056.00,0.2151
1055.00,0.2160
1054.00,0.2170
1053.00,0.2183
1052.00,0.2197
1051.00,0.2211
1050.00,0.2227
1049.00,0.2243
1048.00,0.2262
1047.00,0.2283
1046.00,0.2306
1045.00,0.2331
1044.00,0.2355
1043.00,0.2375
1042.00,0.2392
1041.00,0.2405
1040.00,0.2415
1039.00,0.2420
1038.00,0.2423
1037.00,0.2424
1036.00,0.2425
1035.00,0.2425
1034.00,0.2428
1033.00,0.2432
1032.00,0.2440
1031.00,0.2448
1030.00,0.2456
1029.00,0.2462
1028.00,0.2465
1027.00,0.2461
1026.00,0.2452
1025.00,0.2437
1024.00,0.2417
1023.00,0.2393
1022.00,0.2365
1021.00,0.2334
1020.00,0.2302
1019.00,0.2268
1018.00,0.2233
1017.00,0.2197
1016.00,0.2162
1015.00,0.2128
1014.00,0.2095
1013.00,0.2065
1012.00,0.2038
1011.00,0.2015
1010.00,0.1996
1009.00,0.1981
1008.00,0.1971
1007.00,0.1964
1006.00,0.1957
1005.00,0.1950
1004.00,0.1939
1003.00,0.1924
1002.00,0.1903
1001.00,0.1876
1000.00,0.1844
999.00,0.1807
998.00,0.1769
997.00,0.1730
996.00,0.1694
995.00,0.1659
994.00,0.1627
993.00,0.1597
992.00,0.1568
991.00,0.1541
990.00,0.1514
989.00,0.1486
988.00,0.1456
987.00,0.1424
986.00,0.1390
985.00,0.1357
984.00,0.1323
983.00,0.1291
982.00,0.1262
981.00,0.1236
980.00,0.1215
979.00,0.1197
978.00,0.1182
977.00,0.1170
976.00,0.1160
975.00,0.1153
974.00,0.1149
973.00,0.1146
972.00,0.1145
971.00,0.1142
970.00,0.1136
969.00,0.1126
968.00,0.1110
967.00,0.1089
966.00,0.1063
965.00,0.1036
964.00,0.1008
963.00,0.0982
962.00,0.0959
961.00,0.0941
960.00,0.0927
959.00,0.0916
958.00,0.0909
957.00,0.0906
956.00,0.0905
955.00,0.0908
954.00,0.0913
953.00,0.0921
952.00,0.0931
951.00,0.0943
950.00,0.0958
949.00,0.0974
948.00,0.0993
947.00,0.1014
946.00,0.1037
945.00,0.1062
944.00,0.1089
943.00,0.1119
942.00,0.1152
941.00,0.1189
940.00,0.1231
939.00,0.1275
938.00,0.1322
937.00,0.1370
936.00,0.1418
935.00,0.1463
934.00,0.1504
933.00,0.1541
932.00,0.1573
931.00,0.1601
930.00,0.1626
929.00,0.1647
928.00,0.1665
927.00,0.1678
926.00,0.1686
925.00,0.1691
924.00,0.1694
923.00,0.1695
922.00,0.1695
921.00,0.1695
920.00,0.1693
919.00,0.1690
918.00,0.1686
917.00,0.1681
916.00,0.1673
915.00,0.1664
914.00,0.1654
913.00,0.1643
912.00,0.1632
911.00,0.1618
910.00,0.1604
909.00,0.1591
908.00,0.1577
907.00,0.1565
906.00,0.1554
905.00,0.1543
904.00,0.1532
903.00,0.1521
902.00,0.1510
901.00,0.1500
900.00,0.1489
899.00,0.1479
898.00,0.1471
897.00,0.1463
896.00,0.1455
895.00,0.1446
894.00,0.1438
893.00,0.1431
892.00,0.1424
891.00,0.1416
890.00,0.1405
889.00,0.1393
888.00,0.1379
887.00,0.1361
886.00,0.1340
885.00,0.1316
884.00,0.1290
883.00,0.1263
882.00,0.1236
881.00,0.1211
880.00,0.1189
879.00,0.1171
878.00,0.1159
877.00,0.1152
876.00,0.1149
875.00,0.1148
874.00,0.1147
873.00,0.1144
872.00,0.1138
871.00,0.1130
870.00,0.1123
869.00,0.1116
868.00,0.1110
867.00,0.1106
866.00,0.1103
865.00,0.1104
864.00,0.1107
863.00,0.1112
862.00,0.1119
861.00,0.1129
860.00,0.1142
859.00,0.1158
858.00,0.1177
857.00,0.1199
856.00,0.1222
855.00,0.1247
854.00,0.1274
853.00,0.1302
852.00,0.1330
851.00,0.1357
850.00,0.1382
849.00,0.1404
848.00,0.1420
847.00,0.1432
846.00,0.1439
845.00,0.1440
844.00,0.1434
843.00,0.1421
842.00,0.1404
841.00,0.1383
840.00,0.1360
839.00,0.1336
838.00,0.1312
837.00,0.1290
836.00,0.1269
835.00,0.1250
834.00,0.1233
833.00,0.1218
832.00,0.1205
831.00,0.1193
830.00,0.1183
829.00,0.1174
828.00,0.1166
827.00,0.1158
826.00,0.1153
825.00,0.1148
824.00,0.1146
823.00,0.1144
822.00,0.1143
821.00,0.1143
820.00,0.1142
819.00,0.1143
818.00,0.1144
817.00,0.1146
816.00,0.1149
815.00,0.1152
814.00,0.1157
813.00,0.1162
812.00,0.1169
811.00,0.1176
810.00,0.1184
809.00,0.1192
808.00,0.1201
807.00,0.1208
806.00,0.1215
805.00,0.1222
804.00,0.1228
803.00,0.1234
802.00,0.1240
801.00,0.1244
800.00,0.1247
799.00,0.1249
798.00,0.1250
797.00,0.1251
796.00,0.1250
795.00,0.1248
794.00,0.1247
793.00,0.1245
792.00,0.1245
791.00,0.1245
790.00,0.1246
789.00,0.1247
788.00,0.1249
787.00,0.1251
786.00,0.1255
785.00,0.1261
784.00,0.1267
783.00,0.1273
782.00,0.1280
781.00,0.1288
780.00,0.1298
779.00,0.1309
778.00,0.1321
777.00,0.1334
776.00,0.1345
775.00,0.1356
774.00,0.1365
773.00,0.1372
772.00,0.1376
771.00,0.1379
770.00,0.1381
769.00,0.1383
768.00,0.1385
767.00,0.1387
766.00,0.1390
765.00,0.1393
764.00,0.1396
763.00,0.1401
762.00,0.1407
761.00,0.1413
760.00,0.1419
759.00,0.1425
758.00,0.1433
757.00,0.1442
756.00,0.1453
755.00,0.1463
754.00,0.1474
753.00,0.1486
752.00,0.1500
751.00,0.1516
750.00,0.1535
749.00,0.1554
748.00,0.1574
747.00,0.1592
746.00,0.1609
745.00,0.1626
744.00,0.1641
743.00,0.1654
742.00,0.1667
741.00,0.1678
740.00,0.1690
739.00,0.1702
738.00,0.1714
737.00,0.1725
736.00,0.1734
735.00,0.1741
734.00,0.1747
733.00,0.1753
732.00,0.1759
731.00,0.1767
730.00,0.1775
729.00,0.1782
728.00,0.1789
727.00,0.1796
726.00,0.1804
725.00,0.1810
724.00,0.1816
723.00,0.1821
722.00,0.1824
721.00,0.1824
720.00,0.1823
719.00,0.1821
718.00,0.1820
717.00,0.1822
716.00,0.1825
715.00,0.1831
714.00,0.1838
713.00,0.1848
712.00,0.1861
711.00,0.1875
710.00,0.1892
709.00,0.1909
708.00,0.1927
707.00,0.1943
706.00,0.1959
705.00,0.1973
704.00,0.1985
703.00,0.1994
702.00,0.1999
701.00,0.2001
700.00,0.2001
699.00,0.1998
698.00,0.1993
697.00,0.1988
696.00,0.1980
695.00,0.1971
694.00,0.1962
693.00,0.1953
692.00,0.1944
691.00,0.1935
690.00,0.1926
689.00,0.1918
688.00,0.1910
687.00,0.1903
686.00,0.1898
685.00,0.1896
684.00,0.1895
683.00,0.1895
682.00,0.1897
681.00,0.1900
680.00,0.1904
679.00,0.1908
678.00,0.1912
677.00,0.1916
676.00,0.1921
675.00,0.1927
674.00,0.1935
673.00,0.1942
672.00,0.1948
671.00,0.1950
670.00,0.1950
669.00,0.1955
668.00,0.1966
667.00,0.1980
666.00,0.1987
665.00,0.1987
664.00,0.1986
663.00,0.1986
662.00,0.1988
661.00,0.1991
660.00,0.1993
659.00,0.1995
658.00,0.1997
657.00,0.2000
656.00,0.2003
655.00,0.2006
654.00,0.2009
653.00,0.2011
652.00,0.2013
651.00,0.2016
650.00,0.2021
649.00,0.2026
648.00,0.2031
647.00,0.2035
646.00,0.2039
645.00,0.2044
644.00,0.2048
643.00,0.2051
642.00,0.2056
641.00,0.2063
640.00,0.2071
639.00,0.2080
638.00,0.2089
637.00,0.2097
636.00,0.2105
635.00,0.2116
634.00,0.2129
633.00,0.2143
632.00,0.2159
631.00,0.2176
630.00,0.2194
629.00,0.2214
628.00,0.2234
627.00,0.2254
626.00,0.2274
625.00,0.2293
624.00,0.2313
623.00,0.2333
622.00,0.2354
621.00,0.2373
620.00,0.2391
619.00,0.2406
618.00,0.2421
617.00,0.2436
616.00,0.2452
615.00,0.2468
614.00,0.2485
613.00,0.2501
612.00,0.2517
611.00,0.2532
610.00,0.2545
609.00,0.2557
608.00,0.2566
607.00,0.2575
606.00,0.2582
605.00,0.2589
604.00,0.2594
603.00,0.2598
602.00,0.2601
601.00,0.2604
600.00,0.2608
599.00,0.2612
598.00,0.2619
597.00,0.2628
596.00,0.2639
595.00,0.2652
594.00,0.2666
593.00,0.2681
592.00,0.2697
591.00,0.2715
590.00,0.2734
589.00,0.2752
588.00,0.2770
587.00,0.2789
586.00,0.2811
585.00,0.2834
584.00,0.2858
583.00,0.2883
582.00,0.2907
581.00,0.2931
580.00,0.2954
579.00,0.2976
578.00,0.2997
577.00,0.3017
576.00,0.3037
575.00,0.3054
574.00,0.3068
573.00,0.3078
572.00,0.3086
571.00,0.3095
570.00,0.3107
569.00,0.3124
568.00,0.3143
567.00,0.3160
566.00,0.3175
565.00,0.3187
564.00,0.3200
563.00,0.3213
562.00,0.3223
561.00,0.3230
560.00,0.3234
559.00,0.3239
558.00,0.3246
557.00,0.3252
556.00,0.3257
555.00,0.3258
554.00,0.3258
553.00,0.3255
552.00,0.3252
551.00,0.3248
550.00,0.3244
549.00,0.3242
548.00,0.3241
547.00,0.3242
546.00,0.3246
545.00,0.3253
544.00,0.3259
543.00,0.3263
542.00,0.3265
541.00,0.3267
540.00,0.3268
539.00,0.3264
538.00,0.3254
537.00,0.3242
536.00,0.3233
535.00,0.3228
534.00,0.3223
533.00,0.3217
532.00,0.3210
531.00,0.3207
530.00,0.3206
529.00,0.3204
528.00,0.3201
527.00,0.3196
526.00,0.3192
525.00,0.3191
524.00,0.3191
523.00,0.3190
522.00,0.3190
521.00,0.3193
520.00,0.3200
519.00,0.3207
518.00,0.3212
517.00,0.3211
516.00,0.3204
515.00,0.3195
514.00,0.3185
513.00,0.3176
512.00,0.3170
511.00,0.3167
510.00,0.3166
509.00,0.3167
508.00,0.3170
507.00,0.3174
506.00,0.3176
505.00,0.3176
504.00,0.3176
503.00,0.3178
502.00,0.3183
501.00,0.3189
500.00,0.3196
499.00,0.3204
498.00,0.3210
497.00,0.3216
496.00,0.3221
495.00,0.3228
494.00,0.3236
493.00,0.3246
492.00,0.3257
491.00,0.3268
490.00,0.3276
489.00,0.3279
488.00,0.3276
487.00,0.3273
486.00,0.3272
485.00,0.3275
484.00,0.3279
483.00,0.3285
482.00,0.3294
481.00,0.3303
480.00,0.3311
479.00,0.3314
478.00,0.3312
477.00,0.3305
476.00,0.3296
475.00,0.3290
474.00,0.3289
473.00,0.3292
472.00,0.3295
471.00,0.3294
470.00,0.3291
469.00,0.3292
468.00,0.3299
467.00,0.3308
466.00,0.3310
465.00,0.3304
464.00,0.3296
463.00,0.3292
462.00,0.3296
461.00,0.3301
460.00,0.3304
459.00,0.3302
458.00,0.3300
457.00,0.3301
456.00,0.3305
455.00,0.3309
454.00,0.3311
453.00,0.3315
452.00,0.3322
451.00,0.3329
450.00,0.3334
