Created as New Dataset,Sample 014 By Administrator Date Thursday, May 29 2025
cm-1,A
4000.00,0.0054
3999.00,0.0054
3998.00,0.0054
3997.00,0.0054
3996.00,0.0054
3995.00,0.0054
3994.00,0.0054
3993.00,0.0054
3992.00,0.0054
3991.00,0.0054
3990.00,0.0054
3989.00,0.0054
3988.00,0.0055
3987.00,0.0054
3986.00,0.0054
3985.00,0.0054
3984.00,0.0054
3983.00,0.0054
3982.00,0.0054
3981.00,0.0054
3980.00,0.0054
3979.00,0.0054
3978.00,0.0055
3977.00,0.0055
3976.00,0.0055
3975.00,0.0055
3974.00,0.0055
3973.00,0.0055
3972.00,0.0055
3971.00,0.0055
3970.00,0.0055
3969.00,0.0055
3968.00,0.0054
3967.00,0.0054
3966.00,0.0054
3965.00,0.0054
3964.00,0.0055
3963.00,0.0055
3962.00,0.0055
3961.00,0.0054
3960.00,0.0054
3959.00,0.0054
3958.00,0.0054
3957.00,0.0054
3956.00,0.0055
3955.00,0.0055
3954.00,0.0055
3953.00,0.0055
3952.00,0.0056
3951.00,0.0056
3950.00,0.0056
3949.00,0.0056
3948.00,0.0056
3947.00,0.0056
3946.00,0.0056
3945.00,0.0056
3944.00,0.0056
3943.00,0.0056
3942.00,0.0056
3941.00,0.0055
3940.00,0.0055
3939.00,0.0054
3938.00,0.0055
3937.00,0.0055
3936.00,0.0056
3935.00,0.0056
3934.00,0.0057
3933.00,0.0057
3932.00,0.0057
3931.00,0.0056
3930.00,0.0056
3929.00,0.0056
3928.00,0.0057
3927.00,0.0057
3926.00,0.0056
3925.00,0.0056
3924.00,0.0055
3923.00,0.0055
3922.00,0.0055
3921.00,0.0056
3920.00,0.0056
3919.00,0.0057
3918.00,0.0057
3917.00,0.0056
3916.00,0.0056
3915.00,0.0056
3914.00,0.0056
3913.00,0.0056
3912.00,0.0055
3911.00,0.0055
3910.00,0.0056
3909.00,0.0057
3908.00,0.0058
3907.00,0.0059
3906.00,0.0060
3905.00,0.0061
3904.00,0.0061
3903.00,0.0062
3902.00,0.0062
3901.00,0.0061
3900.00,0.0060
3899.00,0.0059
3898.00,0.0059
3897.00,0.0058
3896.00,0.0059
3895.00,0.0059
3894.00,0.0059
3893.00,0.0059
3892.00,0.0058
3891.00,0.0058
3890.00,0.0059
3889.00,0.0059
3888.00,0.0060
3887.00,0.0060
3886.00,0.0060
3885.00,0.0060
3884.00,0.0061
3883.00,0.0061
3882.00,0.0061
3881.00,0.0060
3880.00,0.0059
3879.00,0.0058
3878.00,0.0059
3877.00,0.0059
3876.00,0.0060
3875.00,0.0061
3874.00,0.0062
3873.00,0.0063
3872.00,0.0063
3871.00,0.0063
3870.00,0.0062
3869.00,0.0062
3868.00,0.0062
3867.00,0.0062
3866.00,0.0062
3865.00,0.0061
3864.00,0.0060
3863.00,0.0059
3862.00,0.0059
3861.00,0.0059
3860.00,0.0059
3859.00,0.0060
3858.00,0.0062
3857.00,0.0064
3856.00,0.0066
3855.00,0.0068
3854.00,0.0068
3853.00,0.0067
3852.00,0.0067
3851.00,0.0066
3850.00,0.0064
3849.00,0.0062
3848.00,0.0060
3847.00,0.0059
3846.00,0.0059
3845.00,0.0060
3844.00,0.0060
3843.00,0.0061
3842.00,0.0062
3841.00,0.0063
3840.00,0.0065
3839.00,0.0065
3838.00,0.0066
3837.00,0.0066
3836.00,0.0066
3835.00,0.0065
3834.00,0.0064
3833.00,0.0063
3832.00,0.0062
3831.00,0.0062
3830.00,0.0061
3829.00,0.0061
3828.00,0.0061
3827.00,0.0061
3826.00,0.0062
3825.00,0.0063
3824.00,0.0065
3823.00,0.0066
3822.00,0.0066
3821.00,0.0066
3820.00,0.0066
3819.00,0.0066
3818.00,0.0066
3817.00,0.0065
3816.00,0.0064
3815.00,0.0063
3814.00,0.0063
3813.00,0.0062
3812.00,0.0062
3811.00,0.0062
3810.00,0.0062
3809.00,0.0063
3808.00,0.0063
3807.00,0.0064
3806.00,0.0065
3805.00,0.0066
3804.00,0.0067
3803.00,0.0067
3802.00,0.0066
3801.00,0.0066
3800.00,0.0067
3799.00,0.0067
3798.00,0.0067
3797.00,0.0065
3796.00,0.0064
3795.00,0.0063
3794.00,0.0062
3793.00,0.0062
3792.00,0.0062
3791.00,0.0061
3790.00,0.0062
3789.00,0.0062
3788.00,0.0062
3787.00,0.0063
3786.00,0.0063
3785.00,0.0063
3784.00,0.0063
3783.00,0.0063
3782.00,0.0064
3781.00,0.0064
3780.00,0.0064
3779.00,0.0064
3778.00,0.0064
3777.00,0.0064
3776.00,0.0064
3775.00,0.0064
3774.00,0.0064
3773.00,0.0065
3772.00,0.0066
3771.00,0.0067
3770.00,0.0067
3769.00,0.0068
3768.00,0.0068
3767.00,0.0068
3766.00,0.0067
3765.00,0.0067
3764.00,0.0067
3763.00,0.0068
3762.00,0.0068
3761.00,0.0068
3760.00,0.0068
3759.00,0.0068
3758.00,0.0069
3757.00,0.0070
3756.00,0.0071
3755.00,0.0073
3754.00,0.0075
3753.00,0.0077
3752.00,0.0078
3751.00,0.0079
3750.00,0.0080
3749.00,0.0082
3748.00,0.0083
3747.00,0.0083
3746.00,0.0083
3745.00,0.0081
3744.00,0.0080
3743.00,0.0079
3742.00,0.0079
3741.00,0.0078
3740.00,0.0077
3739.00,0.0077
3738.00,0.0078
3737.00,0.0079
3736.00,0.0079
3735.00,0.0078
3734.00,0.0077
3733.00,0.0077
3732.00,0.0076
3731.00,0.0076
3730.00,0.0077
3729.00,0.0077
3728.00,0.0077
3727.00,0.0077
3726.00,0.0078
3725.00,0.0078
3724.00,0.0078
3723.00,0.0078
3722.00,0.0077
3721.00,0.0077
3720.00,0.0078
3719.00,0.0078
3718.00,0.0079
3717.00,0.0080
3716.00,0.0082
3715.00,0.0083
3714.00,0.0085
3713.00,0.0087
3712.00,0.0088
3711.00,0.0089
3710.00,0.0090
3709.00,0.0090
3708.00,0.0090
3707.00,0.0090
3706.00,0.0090
3705.00,0.0090
3704.00,0.0091
3703.00,0.0091
3702.00,0.0091
3701.00,0.0092
3700.00,0.0093
3699.00,0.0095
3698.00,0.0096
3697.00,0.0097
3696.00,0.0099
3695.00,0.0101
3694.00,0.0103
3693.00,0.0106
3692.00,0.0110
3691.00,0.0113
3690.00,0.0115
3689.00,0.0116
3688.00,0.0117
3687.00,0.0118
3686.00,0.0119
3685.00,0.0120
3684.00,0.0121
3683.00,0.0122
3682.00,0.0124
3681.00,0.0127
3680.00,0.0131
3679.00,0.0135
3678.00,0.0139
3677.00,0.0142
3676.00,0.0146
3675.00,0.0149
3674.00,0.0153
3673.00,0.0157
3672.00,0.0160
3671.00,0.0161
3670.00,0.0163
3669.00,0.0166
3668.00,0.0168
3667.00,0.0171
3666.00,0.0174
3665.00,0.0177
3664.00,0.0180
3663.00,0.0184
3662.00,0.0187
3661.00,0.0191
3660.00,0.0196
3659.00,0.0201
3658.00,0.0206
3657.00,0.0211
3656.00,0.0217
3655.00,0.0223
3654.00,0.0229
3653.00,0.0235
3652.00,0.0241
3651.00,0.0246
3650.00,0.0252
3649.00,0.0259
3648.00,0.0265
3647.00,0.0271
3646.00,0.0276
3645.00,0.0280
3644.00,0.0284
3643.00,0.0288
3642.00,0.0293
3641.00,0.0298
3640.00,0.0303
3639.00,0.0309
3638.00,0.0315
3637.00,0.0320
3636.00,0.0327
3635.00,0.0333
3634.00,0.0340
3633.00,0.0347
3632.00,0.0354
3631.00,0.0361
3630.00,0.0367
3629.00,0.0374
3628.00,0.0382
3627.00,0.0389
3626.00,0.0396
3625.00,0.0401
3624.00,0.0406
3623.00,0.0411
3622.00,0.0417
3621.00,0.0423
3620.00,0.0430
3619.00,0.0438
3618.00,0.0445
3617.00,0.0452
3616.00,0.0458
3615.00,0.0464
3614.00,0.0470
3613.00,0.0475
3612.00,0.0482
3611.00,0.0488
3610.00,0.0494
3609.00,0.0501
3608.00,0.0508
3607.00,0.0514
3606.00,0.0520
3605.00,0.0525
3604.00,0.0531
3603.00,0.0537
3602.00,0.0543
3601.00,0.0549
3600.00,0.0556
3599.00,0.0563
3598.00,0.0569
3597.00,0.0575
3596.00,0.0582
3595.00,0.0588
3594.00,0.0594
3593.00,0.0601
3592.00,0.0607
3591.00,0.0612
3590.00,0.0617
3589.00,0.0623
3588.00,0.0629
3587.00,0.0636
3586.00,0.0643
3585.00,0.0650
3584.00,0.0657
3583.00,0.0663
3582.00,0.0668
3581.00,0.0673
3580.00,0.0678
3579.00,0.0684
3578.00,0.0689
3577.00,0.0696
3576.00,0.0702
3575.00,0.0708
3574.00,0.0714
3573.00,0.0720
3572.00,0.0726
3571.00,0.0731
3570.00,0.0736
3569.00,0.0742
3568.00,0.0747
3567.00,0.0753
3566.00,0.0760
3565.00,0.0768
3564.00,0.0774
3563.00,0.0781
3562.00,0.0786
3561.00,0.0792
3560.00,0.0797
3559.00,0.0802
3558.00,0.0807
3557.00,0.0812
3556.00,0.0817
3555.00,0.0823
3554.00,0.0829
3553.00,0.0835
3552.00,0.0841
3551.00,0.0847
3550.00,0.0852
3549.00,0.0858
3548.00,0.0863
3547.00,0.0869
3546.00,0.0875
3545.00,0.0881
3544.00,0.0887
3543.00,0.0893
3542.00,0.0899
3541.00,0.0904
3540.00,0.0909
3539.00,0.0914
3538.00,0.0919
3537.00,0.0924
3536.00,0.0930
3535.00,0.0935
3534.00,0.0940
3533.00,0.0944
3532.00,0.0949
3531.00,0.0954
3530.00,0.0960
3529.00,0.0966
3528.00,0.0973
3527.00,0.0980
3526.00,0.0987
3525.00,0.0993
3524.00,0.0999
3523.00,0.1004
3522.00,0.1009
3521.00,0.1014
3520.00,0.1019
3519.00,0.1025
3518.00,0.1030
3517.00,0.1035
3516.00,0.1041
3515.00,0.1047
3514.00,0.1052
3513.00,0.1057
3512.00,0.1062
3511.00,0.1067
3510.00,0.1073
3509.00,0.1078
3508.00,0.1084
3507.00,0.1091
3506.00,0.1096
3505.00,0.1102
3504.00,0.1107
3503.00,0.1112
3502.00,0.1117
3501.00,0.1123
3500.00,0.1128
3499.00,0.1133
3498.00,0.1137
3497.00,0.1142
3496.00,0.1148
3495.00,0.1153
3494.00,0.1158
3493.00,0.1164
3492.00,0.1169
3491.00,0.1174
3490.00,0.1179
3489.00,0.1184
3488.00,0.1189
3487.00,0.1194
3486.00,0.1199
3485.00,0.1204
3484.00,0.1208
3483.00,0.1214
3482.00,0.1219
3481.00,0.1224
3480.00,0.1230
3479.00,0.1234
3478.00,0.1239
3477.00,0.1243
3476.00,0.1248
3475.00,0.1252
3474.00,0.1257
3473.00,0.1262
3472.00,0.1268
3471.00,0.1273
3470.00,0.1278
3469.00,0.1283
3468.00,0.1287
3467.00,0.1291
3466.00,0.1295
3465.00,0.1299
3464.00,0.1303
3463.00,0.1307
3462.00,0.1312
3461.00,0.1316
3460.00,0.1320
3459.00,0.1325
3458.00,0.1328
3457.00,0.1332
3456.00,0.1336
3455.00,0.1340
3454.00,0.1344
3453.00,0.1348
3452.00,0.1352
3451.00,0.1356
3450.00,0.1361
3449.00,0.1365
3448.00,0.1369
3447.00,0.1373
3446.00,0.1376
3445.00,0.1380
3444.00,0.1383
3443.00,0.1387
3442.00,0.1391
3441.00,0.1395
3440.00,0.1399
3439.00,0.1403
3438.00,0.1408
3437.00,0.1411
3436.00,0.1415
3435.00,0.1418
3434.00,0.1421
3433.00,0.1424
3432.00,0.1426
3431.00,0.1429
3430.00,0.1432
3429.00,0.1434
3428.00,0.1436
3427.00,0.1439
3426.00,0.1441
3425.00,0.1443
3424.00,0.1446
3423.00,0.1448
3422.00,0.1450
3421.00,0.1452
3420.00,0.1455
3419.00,0.1457
3418.00,0.1459
3417.00,0.1461
3416.00,0.1463
3415.00,0.1465
3414.00,0.1468
3413.00,0.1470
3412.00,0.1472
3411.00,0.1474
3410.00,0.1475
3409.00,0.1476
3408.00,0.1477
3407.00,0.1477
3406.00,0.1478
3405.00,0.1479
3404.00,0.1481
3403.00,0.1483
3402.00,0.1485
3401.00,0.1485
3400.00,0.1485
3399.00,0.1484
3398.00,0.1484
3397.00,0.1484
3396.00,0.1485
3395.00,0.1486
3394.00,0.1487
3393.00,0.1487
3392.00,0.1486
3391.00,0.1485
3390.00,0.1484
3389.00,0.1483
3388.00,0.1482
3387.00,0.1481
3386.00,0.1480
3385.00,0.1479
3384.00,0.1478
3383.00,0.1478
3382.00,0.1478
3381.00,0.1477
3380.00,0.1476
3379.00,0.1475
3378.00,0.1473
3377.00,0.1472
3376.00,0.1470
3375.00,0.1469
3374.00,0.1467
3373.00,0.1465
3372.00,0.1464
3371.00,0.1462
3370.00,0.1461
3369.00,0.1459
3368.00,0.1456
3367.00,0.1454
3366.00,0.1451
3365.00,0.1449
3364.00,0.1446
3363.00,0.1443
3362.00,0.1440
3361.00,0.1438
3360.00,0.1434
3359.00,0.1431
3358.00,0.1428
3357.00,0.1425
3356.00,0.1422
3355.00,0.1419
3354.00,0.1415
3353.00,0.1413
3352.00,0.1410
3351.00,0.1406
3350.00,0.1403
3349.00,0.1400
3348.00,0.1396
3347.00,0.1393
3346.00,0.1389
3345.00,0.1386
3344.00,0.1382
3343.00,0.1379
3342.00,0.1375
3341.00,0.1371
3340.00,0.1367
3339.00,0.1363
3338.00,0.1359
3337.00,0.1355
3336.00,0.1351
3335.00,0.1347
3334.00,0.1343
3333.00,0.1339
3332.00,0.1335
3331.00,0.1331
3330.00,0.1327
3329.00,0.1323
3328.00,0.1319
3327.00,0.1315
3326.00,0.1311
3325.00,0.1307
3324.00,0.1303
3323.00,0.1299
3322.00,0.1295
3321.00,0.1292
3320.00,0.1288
3319.00,0.1285
3318.00,0.1281
3317.00,0.1278
3316.00,0.1274
3315.00,0.1270
3314.00,0.1266
3313.00,0.1262
3312.00,0.1258
3311.00,0.1254
3310.00,0.1251
3309.00,0.1248
3308.00,0.1244
3307.00,0.1241
3306.00,0.1237
3305.00,0.1233
3304.00,0.1229
3303.00,0.1225
3302.00,0.1222
3301.00,0.1218
3300.00,0.1215
3299.00,0.1212
3298.00,0.1208
3297.00,0.1205
3296.00,0.1201
3295.00,0.1198
3294.00,0.1195
3293.00,0.1192
3292.00,0.1189
3291.00,0.1185
3290.00,0.1181
3289.00,0.1178
3288.00,0.1175
3287.00,0.1171
3286.00,0.1168
3285.00,0.1164
3284.00,0.1160
3283.00,0.1156
3282.00,0.1153
3281.00,0.1150
3280.00,0.1146
3279.00,0.1143
3278.00,0.1140
3277.00,0.1137
3276.00,0.1133
3275.00,0.1130
3274.00,0.1127
3273.00,0.1124
3272.00,0.1120
3271.00,0.1117
3270.00,0.1114
3269.00,0.1111
3268.00,0.1107
3267.00,0.1104
3266.00,0.1100
3265.00,0.1096
3264.00,0.1093
3263.00,0.1089
3262.00,0.1085
3261.00,0.1081
3260.00,0.1078
3259.00,0.1075
3258.00,0.1071
3257.00,0.1068
3256.00,0.1064
3255.00,0.1060
3254.00,0.1056
3253.00,0.1052
3252.00,0.1048
3251.00,0.1045
3250.00,0.1041
3249.00,0.1038
3248.00,0.1033
3247.00,0.1029
3246.00,0.1025
3245.00,0.1021
3244.00,0.1017
3243.00,0.1012
3242.00,0.1008
3241.00,0.1004
3240.00,0.1000
3239.00,0.0996
3238.00,0.0991
3237.00,0.0987
3236.00,0.0982
3235.00,0.0978
3234.00,0.0973
3233.00,0.0968
3232.00,0.0964
3231.00,0.0959
3230.00,0.0954
3229.00,0.0950
3228.00,0.0945
3227.00,0.0940
3226.00,0.0935
3225.00,0.0930
3224.00,0.0925
3223.00,0.0921
3222.00,0.0916
3221.00,0.0912
3220.00,0.0907
3219.00,0.0902
3218.00,0.0896
3217.00,0.0891
3216.00,0.0886
3215.00,0.0880
3214.00,0.0875
3213.00,0.0870
3212.00,0.0864
3211.00,0.0859
3210.00,0.0854
3209.00,0.0849
3208.00,0.0843
3207.00,0.0838
3206.00,0.0832
3205.00,0.0827
3204.00,0.0822
3203.00,0.0817
3202.00,0.0811
3201.00,0.0806
3200.00,0.0800
3199.00,0.0794
3198.00,0.0789
3197.00,0.0783
3196.00,0.0778
3195.00,0.0773
3194.00,0.0768
3193.00,0.0763
3192.00,0.0757
3191.00,0.0752
3190.00,0.0746
3189.00,0.0741
3188.00,0.0735
3187.00,0.0729
3186.00,0.0724
3185.00,0.0718
3184.00,0.0713
3183.00,0.0708
3182.00,0.0703
3181.00,0.0698
3180.00,0.0693
3179.00,0.0688
3178.00,0.0683
3177.00,0.0677
3176.00,0.0672
3175.00,0.0667
3174.00,0.0662
3173.00,0.0658
3172.00,0.0653
3171.00,0.0647
3170.00,0.0642
3169.00,0.0636
3168.00,0.0631
3167.00,0.0626
3166.00,0.0621
3165.00,0.0616
3164.00,0.0612
3163.00,0.0607
3162.00,0.0603
3161.00,0.0599
3160.00,0.0594
3159.00,0.0589
3158.00,0.0585
3157.00,0.0580
3156.00,0.0576
3155.00,0.0572
3154.00,0.0567
3153.00,0.0563
3152.00,0.0558
3151.00,0.0553
3150.00,0.0549
3149.00,0.0545
3148.00,0.0540
3147.00,0.0536
3146.00,0.0532
3145.00,0.0527
3144.00,0.0523
3143.00,0.0519
3142.00,0.0514
3141.00,0.0510
3140.00,0.0506
3139.00,0.0502
3138.00,0.0498
3137.00,0.0494
3136.00,0.0490
3135.00,0.0487
3134.00,0.0483
3133.00,0.0479
3132.00,0.0475
3131.00,0.0472
3130.00,0.0468
3129.00,0.0464
3128.00,0.0460
3127.00,0.0457
3126.00,0.0453
3125.00,0.0450
3124.00,0.0446
3123.00,0.0443
3122.00,0.0440
3121.00,0.0436
3120.00,0.0433
3119.00,0.0430
3118.00,0.0426
3117.00,0.0422
3116.00,0.0418
3115.00,0.0415
3114.00,0.0411
3113.00,0.0408
3112.00,0.0406
3111.00,0.0403
3110.00,0.0400
3109.00,0.0397
3108.00,0.0393
3107.00,0.0390
3106.00,0.0388
3105.00,0.0385
3104.00,0.0382
3103.00,0.0379
3102.00,0.0376
3101.00,0.0373
3100.00,0.0370
3099.00,0.0367
3098.00,0.0365
3097.00,0.0362
3096.00,0.0360
3095.00,0.0357
3094.00,0.0354
3093.00,0.0352
3092.00,0.0350
3091.00,0.0348
3090.00,0.0345
3089.00,0.0343
3088.00,0.0340
3087.00,0.0337
3086.00,0.0335
3085.00,0.0332
3084.00,0.0330
3083.00,0.0327
3082.00,0.0324
3081.00,0.0322
3080.00,0.0319
3079.00,0.0317
3078.00,0.0315
3077.00,0.0313
3076.00,0.0311
3075.00,0.0309
3074.00,0.0307
3073.00,0.0304
3072.00,0.0302
3071.00,0.0300
3070.00,0.0298
3069.00,0.0295
3068.00,0.0293
3067.00,0.0291
3066.00,0.0289
3065.00,0.0287
3064.00,0.0284
3063.00,0.0282
3062.00,0.0280
3061.00,0.0279
3060.00,0.0277
3059.00,0.0275
3058.00,0.0273
3057.00,0.0272
3056.00,0.0270
3055.00,0.0268
3054.00,0.0266
3053.00,0.0264
3052.00,0.0262
3051.00,0.0260
3050.00,0.0259
3049.00,0.0257
3048.00,0.0255
3047.00,0.0254
3046.00,0.0252
3045.00,0.0250
3044.00,0.0248
3043.00,0.0247
3042.00,0.0246
3041.00,0.0244
3040.00,0.0243
3039.00,0.0242
3038.00,0.0241
3037.00,0.0239
3036.00,0.0238
3035.00,0.0236
3034.00,0.0234
3033.00,0.0233
3032.00,0.0231
3031.00,0.0230
3030.00,0.0229
3029.00,0.0228
3028.00,0.0226
3027.00,0.0225
3026.00,0.0223
3025.00,0.0222
3024.00,0.0220
3023.00,0.0219
3022.00,0.0218
3021.00,0.0217
3020.00,0.0216
3019.00,0.0215
3018.00,0.0214
3017.00,0.0213
3016.00,0.0212
3015.00,0.0211
3014.00,0.0210
3013.00,0.0209
3012.00,0.0208
3011.00,0.0208
3010.00,0.0207
3009.00,0.0206
3008.00,0.0205
3007.00,0.0204
3006.00,0.0203
3005.00,0.0202
3004.00,0.0202
3003.00,0.0201
3002.00,0.0201
3001.00,0.0200
3000.00,0.0199
2999.00,0.0199
2998.00,0.0198
2997.00,0.0198
2996.00,0.0197
2995.00,0.0197
2994.00,0.0197
2993.00,0.0197
2992.00,0.0197
2991.00,0.0197
2990.00,0.0197
2989.00,0.0196
2988.00,0.0196
2987.00,0.0196
2986.00,0.0196
2985.00,0.0196
2984.00,0.0196
2983.00,0.0196
2982.00,0.0197
2981.00,0.0197
2980.00,0.0197
2979.00,0.0197
2978.00,0.0197
2977.00,0.0197
2976.00,0.0198
2975.00,0.0198
2974.00,0.0198
2973.00,0.0199
2972.00,0.0199
2971.00,0.0199
2970.00,0.0199
2969.00,0.0200
2968.00,0.0200
2967.00,0.0200
2966.00,0.0200
2965.00,0.0200
2964.00,0.0200
2963.00,0.0200
2962.00,0.0200
2961.00,0.0200
2960.00,0.0200
2959.00,0.0200
2958.00,0.0200
2957.00,0.0199
2956.00,0.0199
2955.00,0.0198
2954.00,0.0198
2953.00,0.0197
2952.00,0.0197
2951.00,0.0196
2950.00,0.0196
2949.00,0.0195
2948.00,0.0195
2947.00,0.0195
2946.00,0.0195
2945.00,0.0195
2944.00,0.0195
2943.00,0.0195
2942.00,0.0195
2941.00,0.0195
2940.00,0.0195
2939.00,0.0196
2938.00,0.0196
2937.00,0.0196
2936.00,0.0196
2935.00,0.0196
2934.00,0.0196
2933.00,0.0197
2932.00,0.0198
2931.00,0.0199
2930.00,0.0199
2929.00,0.0200
2928.00,0.0200
2927.00,0.0201
2926.00,0.0202
2925.00,0.0202
2924.00,0.0202
2923.00,0.0203
2922.00,0.0203
2921.00,0.0203
2920.00,0.0203
2919.00,0.0202
2918.00,0.0201
2917.00,0.0200
2916.00,0.0198
2915.00,0.0196
2914.00,0.0194
2913.00,0.0193
2912.00,0.0191
2911.00,0.0189
2910.00,0.0187
2909.00,0.0186
2908.00,0.0184
2907.00,0.0183
2906.00,0.0182
2905.00,0.0181
2904.00,0.0180
2903.00,0.0178
2902.00,0.0177
2901.00,0.0176
2900.00,0.0174
2899.00,0.0173
2898.00,0.0172
2897.00,0.0171
2896.00,0.0170
2895.00,0.0169
2894.00,0.0167
2893.00,0.0166
2892.00,0.0165
2891.00,0.0164
2890.00,0.0163
2889.00,0.0162
2888.00,0.0161
2887.00,0.0160
2886.00,0.0159
2885.00,0.0158
2884.00,0.0156
2883.00,0.0155
2882.00,0.0154
2881.00,0.0153
2880.00,0.0153
2879.00,0.0152
2878.00,0.0152
2877.00,0.0151
2876.00,0.0150
2875.00,0.0150
2874.00,0.0149
2873.00,0.0148
2872.00,0.0148
2871.00,0.0147
2870.00,0.0146
2869.00,0.0145
2868.00,0.0143
2867.00,0.0142
2866.00,0.0141
2865.00,0.0141
2864.00,0.0140
2863.00,0.0140
2862.00,0.0140
2861.00,0.0140
2860.00,0.0140
2859.00,0.0140
2858.00,0.0140
2857.00,0.0140
2856.00,0.0140
2855.00,0.0140
2854.00,0.0140
2853.00,0.0140
2852.00,0.0140
2851.00,0.0139
2850.00,0.0137
2849.00,0.0135
2848.00,0.0133
2847.00,0.0131
2846.00,0.0129
2845.00,0.0127
2844.00,0.0125
2843.00,0.0123
2842.00,0.0121
2841.00,0.0120
2840.00,0.0118
2839.00,0.0117
2838.00,0.0116
2837.00,0.0115
2836.00,0.0115
2835.00,0.0114
2834.00,0.0114
2833.00,0.0113
2832.00,0.0113
2831.00,0.0112
2830.00,0.0112
2829.00,0.0111
2828.00,0.0110
2827.00,0.0110
2826.00,0.0110
2825.00,0.0109
2824.00,0.0108
2823.00,0.0107
2822.00,0.0107
2821.00,0.0106
2820.00,0.0106
2819.00,0.0105
2818.00,0.0104
2817.00,0.0104
2816.00,0.0103
2815.00,0.0103
2814.00,0.0103
2813.00,0.0102
2812.00,0.0102
2811.00,0.0101
2810.00,0.0101
2809.00,0.0101
2808.00,0.0100
2807.00,0.0100
2806.00,0.0100
2805.00,0.0100
2804.00,0.0100
2803.00,0.0100
2802.00,0.0099
2801.00,0.0099
2800.00,0.0099
2799.00,0.0098
2798.00,0.0098
2797.00,0.0097
2796.00,0.0097
2795.00,0.0096
2794.00,0.0096
2793.00,0.0096
2792.00,0.0095
2791.00,0.0095
2790.00,0.0095
2789.00,0.0095
2788.00,0.0095
2787.00,0.0095
2786.00,0.0095
2785.00,0.0094
2784.00,0.0094
2783.00,0.0094
2782.00,0.0093
2781.00,0.0093
2780.00,0.0092
2779.00,0.0092
2778.00,0.0092
2777.00,0.0092
2776.00,0.0092
2775.00,0.0091
2774.00,0.0091
2773.00,0.0090
2772.00,0.0090
2771.00,0.0090
2770.00,0.0090
2769.00,0.0090
2768.00,0.0090
2767.00,0.0089
2766.00,0.0089
2765.00,0.0088
2764.00,0.0088
2763.00,0.0088
2762.00,0.0088
2761.00,0.0087
2760.00,0.0087
2759.00,0.0087
2758.00,0.0087
2757.00,0.0087
2756.00,0.0087
2755.00,0.0086
2754.00,0.0086
2753.00,0.0086
2752.00,0.0085
2751.00,0.0085
2750.00,0.0085
2749.00,0.0085
2748.00,0.0085
2747.00,0.0085
2746.00,0.0085
2745.00,0.0085
2744.00,0.0085
2743.00,0.0084
2742.00,0.0084
2741.00,0.0083
2740.00,0.0083
2739.00,0.0083
2738.00,0.0083
2737.00,0.0083
2736.00,0.0083
2735.00,0.0084
2734.00,0.0084
2733.00,0.0084
2732.00,0.0084
2731.00,0.0083
2730.00,0.0083
2729.00,0.0083
2728.00,0.0083
2727.00,0.0083
2726.00,0.0083
2725.00,0.0082
2724.00,0.0082
2723.00,0.0082
2722.00,0.0082
2721.00,0.0082
2720.00,0.0082
2719.00,0.0082
2718.00,0.0081
2717.00,0.0081
2716.00,0.0081
2715.00,0.0080
2714.00,0.0080
2713.00,0.0080
2712.00,0.0080
2711.00,0.0080
2710.00,0.0080
2709.00,0.0080
2708.00,0.0080
2707.00,0.0080
2706.00,0.0080
2705.00,0.0079
2704.00,0.0079
2703.00,0.0079
2702.00,0.0078
2701.00,0.0078
2700.00,0.0078
2699.00,0.0078
2698.00,0.0078
2697.00,0.0078
2696.00,0.0078
2695.00,0.0078
2694.00,0.0078
2693.00,0.0078
2692.00,0.0078
2691.00,0.0078
2690.00,0.0078
2689.00,0.0078
2688.00,0.0078
2687.00,0.0078
2686.00,0.0078
2685.00,0.0077
2684.00,0.0077
2683.00,0.0077
2682.00,0.0076
2681.00,0.0076
2680.00,0.0077
2679.00,0.0077
2678.00,0.0077
2677.00,0.0076
2676.00,0.0076
2675.00,0.0076
2674.00,0.0076
2673.00,0.0076
2672.00,0.0076
2671.00,0.0076
2670.00,0.0076
2669.00,0.0076
2668.00,0.0076
2667.00,0.0076
2666.00,0.0077
2665.00,0.0077
2664.00,0.0078
2663.00,0.0078
2662.00,0.0079
2661.00,0.0079
2660.00,0.0079
2659.00,0.0080
2658.00,0.0080
2657.00,0.0080
2656.00,0.0080
2655.00,0.0080
2654.00,0.0080
2653.00,0.0079
2652.00,0.0079
2651.00,0.0079
2650.00,0.0079
2649.00,0.0079
2648.00,0.0079
2647.00,0.0079
2646.00,0.0078
2645.00,0.0078
2644.00,0.0078
2643.00,0.0078
2642.00,0.0078
2641.00,0.0078
2640.00,0.0078
2639.00,0.0077
2638.00,0.0077
2637.00,0.0077
2636.00,0.0076
2635.00,0.0076
2634.00,0.0075
2633.00,0.0075
2632.00,0.0075
2631.00,0.0074
2630.00,0.0074
2629.00,0.0073
2628.00,0.0073
2627.00,0.0073
2626.00,0.0073
2625.00,0.0073
2624.00,0.0072
2623.00,0.0072
2622.00,0.0072
2621.00,0.0072
2620.00,0.0072
2619.00,0.0072
2618.00,0.0072
2617.00,0.0072
2616.00,0.0072
2615.00,0.0072
2614.00,0.0072
2613.00,0.0072
2612.00,0.0071
2611.00,0.0071
2610.00,0.0071
2609.00,0.0070
2608.00,0.0069
2607.00,0.0069
2606.00,0.0068
2605.00,0.0068
2604.00,0.0067
2603.00,0.0067
2602.00,0.0067
2601.00,0.0067
2600.00,0.0067
2599.00,0.0067
2598.00,0.0067
2597.00,0.0067
2596.00,0.0066
2595.00,0.0065
2594.00,0.0065
2593.00,0.0065
2592.00,0.0065
2591.00,0.0065
2590.00,0.0065
2589.00,0.0065
2588.00,0.0064
2587.00,0.0063
2586.00,0.0063
2585.00,0.0064
2584.00,0.0064
2583.00,0.0064
2582.00,0.0064
2581.00,0.0064
2580.00,0.0063
2579.00,0.0063
2578.00,0.0063
2577.00,0.0063
2576.00,0.0064
2575.00,0.0063
2574.00,0.0063
2573.00,0.0063
2572.00,0.0062
2571.00,0.0062
2570.00,0.0063
2569.00,0.0063
2568.00,0.0063
2567.00,0.0062
2566.00,0.0062
2565.00,0.0061
2564.00,0.0061
2563.00,0.0061
2562.00,0.0062
2561.00,0.0061
2560.00,0.0061
2559.00,0.0061
2558.00,0.0060
2557.00,0.0060
2556.00,0.0061
2555.00,0.0061
2554.00,0.0061
2553.00,0.0060
2552.00,0.0060
2551.00,0.0060
2550.00,0.0060
2549.00,0.0060
2548.00,0.0060
2547.00,0.0060
2546.00,0.0059
2545.00,0.0059
2544.00,0.0060
2543.00,0.0060
2542.00,0.0060
2541.00,0.0060
2540.00,0.0061
2539.00,0.0061
2538.00,0.0060
2537.00,0.0060
2536.00,0.0060
2535.00,0.0059
2534.00,0.0059
2533.00,0.0059
2532.00,0.0059
2531.00,0.0059
2530.00,0.0059
2529.00,0.0059
2528.00,0.0060
2527.00,0.0060
2526.00,0.0060
2525.00,0.0060
2524.00,0.0059
2523.00,0.0059
2522.00,0.0058
2521.00,0.0058
2520.00,0.0058
2519.00,0.0058
2518.00,0.0058
2517.00,0.0059
2516.00,0.0059
2515.00,0.0059
2514.00,0.0059
2513.00,0.0058
2512.00,0.0057
2511.00,0.0057
2510.00,0.0058
2509.00,0.0058
2508.00,0.0059
2507.00,0.0059
2506.00,0.0058
2505.00,0.0058
2504.00,0.0058
2503.00,0.0058
2502.00,0.0058
2501.00,0.0058
2500.00,0.0058
2499.00,0.0058
2498.00,0.0057
2497.00,0.0057
2496.00,0.0057
2495.00,0.0056
2494.00,0.0056
2493.00,0.0056
2492.00,0.0057
2491.00,0.0057
2490.00,0.0057
2489.00,0.0057
2488.00,0.0057
2487.00,0.0056
2486.00,0.0056
2485.00,0.0056
2484.00,0.0057
2483.00,0.0057
2482.00,0.0057
2481.00,0.0057
2480.00,0.0057
2479.00,0.0057
2478.00,0.0057
2477.00,0.0057
2476.00,0.0057
2475.00,0.0056
2474.00,0.0056
2473.00,0.0056
2472.00,0.0057
2471.00,0.0057
2470.00,0.0057
2469.00,0.0057
2468.00,0.0057
2467.00,0.0057
2466.00,0.0056
2465.00,0.0056
2464.00,0.0056
2463.00,0.0057
2462.00,0.0057
2461.00,0.0058
2460.00,0.0058
2459.00,0.0058
2458.00,0.0059
2457.00,0.0059
2456.00,0.0059
2455.00,0.0059
2454.00,0.0059
2453.00,0.0059
2452.00,0.0059
2451.00,0.0059
2450.00,0.0059
2449.00,0.0059
2448.00,0.0060
2447.00,0.0059
2446.00,0.0059
2445.00,0.0059
2444.00,0.0058
2443.00,0.0058
2442.00,0.0058
2441.00,0.0057
2440.00,0.0057
2439.00,0.0057
2438.00,0.0058
2437.00,0.0058
2436.00,0.0058
2435.00,0.0058
2434.00,0.0057
2433.00,0.0057
2432.00,0.0057
2431.00,0.0057
2430.00,0.0057
2429.00,0.0057
2428.00,0.0057
2427.00,0.0057
2426.00,0.0057
2425.00,0.0057
2424.00,0.0057
2423.00,0.0056
2422.00,0.0056
2421.00,0.0056
2420.00,0.0056
2419.00,0.0056
2418.00,0.0056
2417.00,0.0056
2416.00,0.0056
2415.00,0.0057
2414.00,0.0057
2413.00,0.0057
2412.00,0.0058
2411.00,0.0058
2410.00,0.0058
2409.00,0.0057
2408.00,0.0057
2407.00,0.0056
2406.00,0.0056
2405.00,0.0056
2404.00,0.0056
2403.00,0.0056
2402.00,0.0056
2401.00,0.0056
2400.00,0.0056
2399.00,0.0057
2398.00,0.0057
2397.00,0.0056
2396.00,0.0056
2395.00,0.0056
2394.00,0.0056
2393.00,0.0057
2392.00,0.0057
2391.00,0.0057
2390.00,0.0057
2389.00,0.0056
2388.00,0.0056
2387.00,0.0056
2386.00,0.0055
2385.00,0.0055
2384.00,0.0055
2383.00,0.0054
2382.00,0.0054
2381.00,0.0053
2380.00,0.0053
2379.00,0.0052
2378.00,0.0051
2377.00,0.0051
2376.00,0.0052
2375.00,0.0053
2374.00,0.0053
2373.00,0.0054
2372.00,0.0054
2371.00,0.0053
2370.00,0.0053
2369.00,0.0052
2368.00,0.0051
2367.00,0.0050
2366.00,0.0050
2365.00,0.0050
2364.00,0.0051
2363.00,0.0052
2362.00,0.0053
2361.00,0.0054
2360.00,0.0055
2359.00,0.0056
2358.00,0.0056
2357.00,0.0056
2356.00,0.0056
2355.00,0.0057
2354.00,0.0057
2353.00,0.0058
2352.00,0.0058
2351.00,0.0058
2350.00,0.0058
2349.00,0.0058
2348.00,0.0059
2347.00,0.0061
2346.00,0.0062
2345.00,0.0062
2344.00,0.0063
2343.00,0.0062
2342.00,0.0062
2341.00,0.0062
2340.00,0.0063
2339.00,0.0064
2338.00,0.0066
2337.00,0.0067
2336.00,0.0068
2335.00,0.0068
2334.00,0.0068
2333.00,0.0068
2332.00,0.0067
2331.00,0.0067
2330.00,0.0067
2329.00,0.0068
2328.00,0.0071
2327.00,0.0075
2326.00,0.0081
2325.00,0.0087
2324.00,0.0090
2323.00,0.0090
2322.00,0.0088
2321.00,0.0085
2320.00,0.0083
2319.00,0.0082
2318.00,0.0081
2317.00,0.0081
2316.00,0.0080
2315.00,0.0080
2314.00,0.0079
2313.00,0.0078
2312.00,0.0078
2311.00,0.0077
2310.00,0.0076
2309.00,0.0075
2308.00,0.0075
2307.00,0.0076
2306.00,0.0077
2305.00,0.0078
2304.00,0.0078
2303.00,0.0079
2302.00,0.0079
2301.00,0.0079
2300.00,0.0079
2299.00,0.0080
2298.00,0.0081
2297.00,0.0083
2296.00,0.0084
2295.00,0.0085
2294.00,0.0087
2293.00,0.0088
2292.00,0.0089
2291.00,0.0090
2290.00,0.0091
2289.00,0.0092
2288.00,0.0093
2287.00,0.0094
2286.00,0.0095
2285.00,0.0095
2284.00,0.0095
2283.00,0.0094
2282.00,0.0093
2281.00,0.0092
2280.00,0.0090
2279.00,0.0089
2278.00,0.0088
2277.00,0.0087
2276.00,0.0086
2275.00,0.0086
2274.00,0.0086
2273.00,0.0087
2272.00,0.0087
2271.00,0.0087
2270.00,0.0086
2269.00,0.0086
2268.00,0.0086
2267.00,0.0085
2266.00,0.0084
2265.00,0.0083
2264.00,0.0082
2263.00,0.0081
2262.00,0.0081
2261.00,0.0081
2260.00,0.0082
2259.00,0.0083
2258.00,0.0084
2257.00,0.0084
2256.00,0.0084
2255.00,0.0083
2254.00,0.0082
2253.00,0.0081
2252.00,0.0081
2251.00,0.0082
2250.00,0.0084
2249.00,0.0085
2248.00,0.0085
2247.00,0.0085
2246.00,0.0084
2245.00,0.0083
2244.00,0.0084
2243.00,0.0084
2242.00,0.0084
2241.00,0.0084
2240.00,0.0085
2239.00,0.0086
2238.00,0.0086
2237.00,0.0086
2236.00,0.0086
2235.00,0.0086
2234.00,0.0086
2233.00,0.0086
2232.00,0.0087
2231.00,0.0087
2230.00,0.0087
2229.00,0.0087
2228.00,0.0086
2227.00,0.0085
2226.00,0.0082
2225.00,0.0079
2224.00,0.0078
2223.00,0.0078
2222.00,0.0080
2221.00,0.0082
2220.00,0.0085
2219.00,0.0087
2218.00,0.0087
2217.00,0.0087
2216.00,0.0086
2215.00,0.0086
2214.00,0.0086
2213.00,0.0086
2212.00,0.0087
2211.00,0.0087
2210.00,0.0087
2209.00,0.0088
2208.00,0.0089
2207.00,0.0088
2206.00,0.0087
2205.00,0.0086
2204.00,0.0086
2203.00,0.0088
2202.00,0.0089
2201.00,0.0090
2200.00,0.0091
2199.00,0.0092
2198.00,0.0092
2197.00,0.0093
2196.00,0.0094
2195.00,0.0094
2194.00,0.0094
2193.00,0.0093
2192.00,0.0094
2191.00,0.0095
2190.00,0.0095
2189.00,0.0095
2188.00,0.0094
2187.00,0.0093
2186.00,0.0092
2185.00,0.0092
2184.00,0.0091
2183.00,0.0089
2182.00,0.0087
2181.00,0.0086
2180.00,0.0086
2179.00,0.0087
2178.00,0.0088
2177.00,0.0088
2176.00,0.0087
2175.00,0.0086
2174.00,0.0085
2173.00,0.0085
2172.00,0.0085
2171.00,0.0086
2170.00,0.0088
2169.00,0.0090
2168.00,0.0093
2167.00,0.0096
2166.00,0.0098
2165.00,0.0099
2164.00,0.0099
2163.00,0.0099
2162.00,0.0098
2161.00,0.0095
2160.00,0.0084
2159.00,0.0067
2158.00,0.0048
2157.00,0.0036
2156.00,0.0033
2155.00,0.0035
2154.00,0.0040
2153.00,0.0047
2152.00,0.0054
2151.00,0.0060
2150.00,0.0062
2149.00,0.0060
2148.00,0.0058
2147.00,0.0055
2146.00,0.0054
2145.00,0.0056
2144.00,0.0059
2143.00,0.0062
2142.00,0.0064
2141.00,0.0066
2140.00,0.0067
2139.00,0.0067
2138.00,0.0067
2137.00,0.0068
2136.00,0.0068
2135.00,0.0066
2134.00,0.0064
2133.00,0.0063
2132.00,0.0065
2131.00,0.0068
2130.00,0.0072
2129.00,0.0076
2128.00,0.0080
2127.00,0.0082
2126.00,0.0083
2125.00,0.0083
2124.00,0.0085
2123.00,0.0086
2122.00,0.0088
2121.00,0.0090
2120.00,0.0092
2119.00,0.0094
2118.00,0.0097
2117.00,0.0099
2116.00,0.0102
2115.00,0.0104
2114.00,0.0104
2113.00,0.0104
2112.00,0.0103
2111.00,0.0103
2110.00,0.0102
2109.00,0.0103
2108.00,0.0104
2107.00,0.0105
2106.00,0.0106
2105.00,0.0107
2104.00,0.0106
2103.00,0.0104
2102.00,0.0102
2101.00,0.0101
2100.00,0.0102
2099.00,0.0103
2098.00,0.0102
2097.00,0.0101
2096.00,0.0099
2095.00,0.0098
2094.00,0.0097
2093.00,0.0097
2092.00,0.0098
2091.00,0.0099
2090.00,0.0099
2089.00,0.0099
2088.00,0.0101
2087.00,0.0103
2086.00,0.0104
2085.00,0.0104
2084.00,0.0103
2083.00,0.0103
2082.00,0.0103
2081.00,0.0104
2080.00,0.0105
2079.00,0.0105
2078.00,0.0104
2077.00,0.0103
2076.00,0.0103
2075.00,0.0103
2074.00,0.0102
2073.00,0.0100
2072.00,0.0100
2071.00,0.0099
2070.00,0.0098
2069.00,0.0096
2068.00,0.0096
2067.00,0.0095
2066.00,0.0095
2065.00,0.0093
2064.00,0.0092
2063.00,0.0090
2062.00,0.0089
2061.00,0.0089
2060.00,0.0092
2059.00,0.0095
2058.00,0.0098
2057.00,0.0099
2056.00,0.0099
2055.00,0.0097
2054.00,0.0098
2053.00,0.0102
2052.00,0.0108
2051.00,0.0113
2050.00,0.0113
2049.00,0.0109
2048.00,0.0104
2047.00,0.0101
2046.00,0.0099
2045.00,0.0098
2044.00,0.0095
2043.00,0.0092
2042.00,0.0089
2041.00,0.0087
2040.00,0.0086
2039.00,0.0087
2038.00,0.0088
2037.00,0.0089
2036.00,0.0090
2035.00,0.0090
2034.00,0.0088
2033.00,0.0084
2032.00,0.0079
2031.00,0.0073
2030.00,0.0069
2029.00,0.0067
2028.00,0.0068
2027.00,0.0071
2026.00,0.0072
2025.00,0.0073
2024.00,0.0073
2023.00,0.0073
2022.00,0.0070
2021.00,0.0069
2020.00,0.0068
2019.00,0.0069
2018.00,0.0068
2017.00,0.0067
2016.00,0.0066
2015.00,0.0065
2014.00,0.0065
2013.00,0.0065
2012.00,0.0064
2011.00,0.0063
2010.00,0.0062
2009.00,0.0061
2008.00,0.0061
2007.00,0.0059
2006.00,0.0057
2005.00,0.0056
2004.00,0.0059
2003.00,0.0064
2002.00,0.0069
2001.00,0.0072
2000.00,0.0074
1999.00,0.0075
1998.00,0.0074
1997.00,0.0074
1996.00,0.0074
1995.00,0.0076
1994.00,0.0078
1993.00,0.0082
1992.00,0.0087
1991.00,0.0089
1990.00,0.0088
1989.00,0.0084
1988.00,0.0081
1987.00,0.0080
1986.00,0.0081
1985.00,0.0085
1984.00,0.0090
1983.00,0.0096
1982.00,0.0102
1981.00,0.0107
1980.00,0.0108
1979.00,0.0103
1978.00,0.0091
1977.00,0.0076
1976.00,0.0065
1975.00,0.0057
1974.00,0.0053
1973.00,0.0051
1972.00,0.0051
1971.00,0.0053
1970.00,0.0055
1969.00,0.0058
1968.00,0.0060
1967.00,0.0062
1966.00,0.0062
1965.00,0.0061
1964.00,0.0061
1963.00,0.0059
1962.00,0.0057
1961.00,0.0056
1960.00,0.0055
1959.00,0.0055
1958.00,0.0054
1957.00,0.0054
1956.00,0.0054
1955.00,0.0056
1954.00,0.0057
1953.00,0.0059
1952.00,0.0060
1951.00,0.0061
1950.00,0.0060
1949.00,0.0059
1948.00,0.0059
1947.00,0.0059
1946.00,0.0060
1945.00,0.0061
1944.00,0.0061
1943.00,0.0060
1942.00,0.0059
1941.00,0.0058
1940.00,0.0058
1939.00,0.0059
1938.00,0.0060
1937.00,0.0061
1936.00,0.0062
1935.00,0.0064
1934.00,0.0065
1933.00,0.0065
1932.00,0.0065
1931.00,0.0064
1930.00,0.0064
1929.00,0.0064
1928.00,0.0063
1927.00,0.0063
1926.00,0.0063
1925.00,0.0063
1924.00,0.0064
1923.00,0.0065
1922.00,0.0066
1921.00,0.0066
1920.00,0.0066
1919.00,0.0066
1918.00,0.0065
1917.00,0.0064
1916.00,0.0065
1915.00,0.0066
1914.00,0.0067
1913.00,0.0068
1912.00,0.0069
1911.00,0.0070
1910.00,0.0070
1909.00,0.0069
1908.00,0.0068
1907.00,0.0068
1906.00,0.0067
1905.00,0.0067
1904.00,0.0067
1903.00,0.0067
1902.00,0.0067
1901.00,0.0067
1900.00,0.0067
1899.00,0.0068
1898.00,0.0067
1897.00,0.0066
1896.00,0.0066
1895.00,0.0066
1894.00,0.0066
1893.00,0.0067
1892.00,0.0067
1891.00,0.0067
1890.00,0.0067
1889.00,0.0068
1888.00,0.0068
1887.00,0.0068
1886.00,0.0068
1885.00,0.0068
1884.00,0.0069
1883.00,0.0069
1882.00,0.0068
1881.00,0.0068
1880.00,0.0068
1879.00,0.0068
1878.00,0.0069
1877.00,0.0068
1876.00,0.0068
1875.00,0.0068
1874.00,0.0068
1873.00,0.0068
1872.00,0.0068
1871.00,0.0068
1870.00,0.0068
1869.00,0.0067
1868.00,0.0066
1867.00,0.0066
1866.00,0.0067
1865.00,0.0068
1864.00,0.0069
1863.00,0.0070
1862.00,0.0070
1861.00,0.0070
1860.00,0.0070
1859.00,0.0070
1858.00,0.0069
1857.00,0.0069
1856.00,0.0068
1855.00,0.0068
1854.00,0.0069
1853.00,0.0069
1852.00,0.0070
1851.00,0.0070
1850.00,0.0069
1849.00,0.0069
1848.00,0.0070
1847.00,0.0071
1846.00,0.0071
1845.00,0.0072
1844.00,0.0072
1843.00,0.0071
1842.00,0.0071
1841.00,0.0071
1840.00,0.0071
1839.00,0.0072
1838.00,0.0072
1837.00,0.0072
1836.00,0.0072
1835.00,0.0072
1834.00,0.0073
1833.00,0.0073
1832.00,0.0073
1831.00,0.0073
1830.00,0.0073
1829.00,0.0072
1828.00,0.0073
1827.00,0.0073
1826.00,0.0074
1825.00,0.0075
1824.00,0.0076
1823.00,0.0077
1822.00,0.0078
1821.00,0.0078
1820.00,0.0077
1819.00,0.0076
1818.00,0.0075
1817.00,0.0074
1816.00,0.0074
1815.00,0.0076
1814.00,0.0077
1813.00,0.0078
1812.00,0.0078
1811.00,0.0079
1810.00,0.0080
1809.00,0.0080
1808.00,0.0081
1807.00,0.0082
1806.00,0.0083
1805.00,0.0083
1804.00,0.0085
1803.00,0.0086
1802.00,0.0086
1801.00,0.0087
1800.00,0.0087
1799.00,0.0087
1798.00,0.0087
1797.00,0.0088
1796.00,0.0089
1795.00,0.0090
1794.00,0.0091
1793.00,0.0091
1792.00,0.0091
1791.00,0.0091
1790.00,0.0091
1789.00,0.0091
1788.00,0.0091
1787.00,0.0092
1786.00,0.0092
1785.00,0.0093
1784.00,0.0093
1783.00,0.0093
1782.00,0.0093
1781.00,0.0094
1780.00,0.0094
1779.00,0.0095
1778.00,0.0095
1777.00,0.0096
1776.00,0.0097
1775.00,0.0097
1774.00,0.0098
1773.00,0.0098
1772.00,0.0098
1771.00,0.0099
1770.00,0.0099
1769.00,0.0101
1768.00,0.0103
1767.00,0.0104
1766.00,0.0105
1765.00,0.0105
1764.00,0.0106
1763.00,0.0107
1762.00,0.0107
1761.00,0.0108
1760.00,0.0109
1759.00,0.0110
1758.00,0.0111
1757.00,0.0113
1756.00,0.0114
1755.00,0.0115
1754.00,0.0116
1753.00,0.0118
1752.00,0.0120
1751.00,0.0121
1750.00,0.0122
1749.00,0.0122
1748.00,0.0123
1747.00,0.0125
1746.00,0.0128
1745.00,0.0130
1744.00,0.0132
1743.00,0.0133
1742.00,0.0134
1741.00,0.0135
1740.00,0.0136
1739.00,0.0138
1738.00,0.0140
1737.00,0.0141
1736.00,0.0143
1735.00,0.0145
1734.00,0.0147
1733.00,0.0150
1732.00,0.0152
1731.00,0.0154
1730.00,0.0156
1729.00,0.0158
1728.00,0.0160
1727.00,0.0162
1726.00,0.0164
1725.00,0.0166
1724.00,0.0169
1723.00,0.0172
1722.00,0.0174
1721.00,0.0177
1720.00,0.0179
1719.00,0.0182
1718.00,0.0185
1717.00,0.0189
1716.00,0.0193
1715.00,0.0196
1714.00,0.0200
1713.00,0.0203
1712.00,0.0207
1711.00,0.0211
1710.00,0.0215
1709.00,0.0219
1708.00,0.0223
1707.00,0.0227
1706.00,0.0232
1705.00,0.0237
1704.00,0.0243
1703.00,0.0248
1702.00,0.0253
1701.00,0.0259
1700.00,0.0267
1699.00,0.0275
1698.00,0.0282
1697.00,0.0289
1696.00,0.0299
1695.00,0.0308
1694.00,0.0316
1693.00,0.0322
1692.00,0.0329
1691.00,0.0337
1690.00,0.0345
1689.00,0.0354
1688.00,0.0363
1687.00,0.0371
1686.00,0.0379
1685.00,0.0390
1684.00,0.0404
1683.00,0.0418
1682.00,0.0429
1681.00,0.0439
1680.00,0.0450
1679.00,0.0460
1678.00,0.0470
1677.00,0.0479
1676.00,0.0490
1675.00,0.0504
1674.00,0.0518
1673.00,0.0531
1672.00,0.0542
1671.00,0.0554
1670.00,0.0568
1669.00,0.0584
1668.00,0.0599
1667.00,0.0613
1666.00,0.0623
1665.00,0.0633
1664.00,0.0644
1663.00,0.0658
1662.00,0.0673
1661.00,0.0687
1660.00,0.0700
1659.00,0.0712
1658.00,0.0723
1657.00,0.0731
1656.00,0.0739
1655.00,0.0746
1654.00,0.0758
1653.00,0.0777
1652.00,0.0797
1651.00,0.0808
1650.00,0.0813
1649.00,0.0816
1648.00,0.0822
1647.00,0.0833
1646.00,0.0844
1645.00,0.0853
1644.00,0.0860
1643.00,0.0865
1642.00,0.0868
1641.00,0.0871
1640.00,0.0874
1639.00,0.0875
1638.00,0.0875
1637.00,0.0874
1636.00,0.0873
1635.00,0.0873
1634.00,0.0873
1633.00,0.0872
1632.00,0.0869
1631.00,0.0865
1630.00,0.0859
1629.00,0.0852
1628.00,0.0843
1627.00,0.0834
1626.00,0.0825
1625.00,0.0815
1624.00,0.0804
1623.00,0.0791
1622.00,0.0779
1621.00,0.0768
1620.00,0.0757
1619.00,0.0746
1618.00,0.0732
1617.00,0.0716
1616.00,0.0699
1615.00,0.0684
1614.00,0.0671
1613.00,0.0659
1612.00,0.0646
1611.00,0.0633
1610.00,0.0619
1609.00,0.0606
1608.00,0.0592
1607.00,0.0580
1606.00,0.0567
1605.00,0.0556
1604.00,0.0544
1603.00,0.0533
1602.00,0.0522
1601.00,0.0512
1600.00,0.0502
1599.00,0.0492
1598.00,0.0483
1597.00,0.0475
1596.00,0.0466
1595.00,0.0458
1594.00,0.0450
1593.00,0.0442
1592.00,0.0435
1591.00,0.0428
1590.00,0.0423
1589.00,0.0417
1588.00,0.0411
1587.00,0.0405
1586.00,0.0400
1585.00,0.0395
1584.00,0.0390
1583.00,0.0386
1582.00,0.0383
1581.00,0.0379
1580.00,0.0376
1579.00,0.0373
1578.00,0.0370
1577.00,0.0366
1576.00,0.0361
1575.00,0.0357
1574.00,0.0354
1573.00,0.0352
1572.00,0.0349
1571.00,0.0347
1570.00,0.0343
1569.00,0.0340
1568.00,0.0337
1567.00,0.0336
1566.00,0.0334
1565.00,0.0333
1564.00,0.0331
1563.00,0.0329
1562.00,0.0328
1561.00,0.0327
1560.00,0.0323
1559.00,0.0317
1558.00,0.0314
1557.00,0.0314
1556.00,0.0314
1555.00,0.0315
1554.00,0.0315
1553.00,0.0315
1552.00,0.0314
1551.00,0.0313
1550.00,0.0312
1549.00,0.0311
1548.00,0.0310
1547.00,0.0309
1546.00,0.0308
1545.00,0.0308
1544.00,0.0307
1543.00,0.0305
1542.00,0.0303
1541.00,0.0300
1540.00,0.0298
1539.00,0.0296
1538.00,0.0296
1537.00,0.0295
1536.00,0.0293
1535.00,0.0291
1534.00,0.0288
1533.00,0.0286
1532.00,0.0284
1531.00,0.0282
1530.00,0.0282
1529.00,0.0281
1528.00,0.0279
1527.00,0.0278
1526.00,0.0276
1525.00,0.0275
1524.00,0.0273
1523.00,0.0272
1522.00,0.0271
1521.00,0.0270
1520.00,0.0269
1519.00,0.0268
1518.00,0.0266
1517.00,0.0265
1516.00,0.0264
1515.00,0.0263
1514.00,0.0263
1513.00,0.0263
1512.00,0.0263
1511.00,0.0263
1510.00,0.0263
1509.00,0.0263
1508.00,0.0262
1507.00,0.0261
1506.00,0.0259
1505.00,0.0258
1504.00,0.0258
1503.00,0.0259
1502.00,0.0259
1501.00,0.0259
1500.00,0.0259
1499.00,0.0259
1498.00,0.0259
1497.00,0.0260
1496.00,0.0261
1495.00,0.0262
1494.00,0.0262
1493.00,0.0263
1492.00,0.0263
1491.00,0.0264
1490.00,0.0266
1489.00,0.0268
1488.00,0.0270
1487.00,0.0272
1486.00,0.0275
1485.00,0.0278
1484.00,0.0280
1483.00,0.0283
1482.00,0.0285
1481.00,0.0288
1480.00,0.0291
1479.00,0.0293
1478.00,0.0296
1477.00,0.0298
1476.00,0.0301
1475.00,0.0303
1474.00,0.0306
1473.00,0.0309
1472.00,0.0311
1471.00,0.0314
1470.00,0.0316
1469.00,0.0318
1468.00,0.0320
1467.00,0.0321
1466.00,0.0321
1465.00,0.0323
1464.00,0.0325
1463.00,0.0327
1462.00,0.0329
1461.00,0.0330
1460.00,0.0331
1459.00,0.0331
1458.00,0.0333
1457.00,0.0337
1456.00,0.0341
1455.00,0.0343
1454.00,0.0343
1453.00,0.0344
1452.00,0.0344
1451.00,0.0345
1450.00,0.0346
1449.00,0.0346
1448.00,0.0347
1447.00,0.0348
1446.00,0.0350
1445.00,0.0351
1444.00,0.0352
1443.00,0.0354
1442.00,0.0355
1441.00,0.0357
1440.00,0.0358
1439.00,0.0359
1438.00,0.0360
1437.00,0.0362
1436.00,0.0365
1435.00,0.0368
1434.00,0.0370
1433.00,0.0371
1432.00,0.0372
1431.00,0.0372
1430.00,0.0374
1429.00,0.0375
1428.00,0.0377
1427.00,0.0378
1426.00,0.0379
1425.00,0.0380
1424.00,0.0381
1423.00,0.0382
1422.00,0.0383
1421.00,0.0383
1420.00,0.0384
1419.00,0.0385
1418.00,0.0386
1417.00,0.0386
1416.00,0.0386
1415.00,0.0386
1414.00,0.0386
1413.00,0.0386
1412.00,0.0386
1411.00,0.0385
1410.00,0.0385
1409.00,0.0385
1408.00,0.0385
1407.00,0.0385
1406.00,0.0384
1405.00,0.0383
1404.00,0.0383
1403.00,0.0382
1402.00,0.0381
1401.00,0.0379
1400.00,0.0377
1399.00,0.0376
1398.00,0.0375
1397.00,0.0374
1396.00,0.0372
1395.00,0.0371
1394.00,0.0371
1393.00,0.0371
1392.00,0.0371
1391.00,0.0372
1390.00,0.0374
1389.00,0.0376
1388.00,0.0380
1387.00,0.0384
1386.00,0.0388
1385.00,0.0392
1384.00,0.0396
1383.00,0.0400
1382.00,0.0404
1381.00,0.0408
1380.00,0.0411
1379.00,0.0413
1378.00,0.0415
1377.00,0.0416
1376.00,0.0416
1375.00,0.0417
1374.00,0.0417
1373.00,0.0417
1372.00,0.0416
1371.00,0.0414
1370.00,0.0412
1369.00,0.0409
1368.00,0.0407
1367.00,0.0404
1366.00,0.0402
1365.00,0.0401
1364.00,0.0399
1363.00,0.0399
1362.00,0.0398
1361.00,0.0398
1360.00,0.0397
1359.00,0.0396
1358.00,0.0395
1357.00,0.0395
1356.00,0.0394
1355.00,0.0394
1354.00,0.0393
1353.00,0.0391
1352.00,0.0389
1351.00,0.0386
1350.00,0.0383
1349.00,0.0380
1348.00,0.0377
1347.00,0.0374
1346.00,0.0371
1345.00,0.0368
1344.00,0.0365
1343.00,0.0363
1342.00,0.0360
1341.00,0.0359
1340.00,0.0357
1339.00,0.0356
1338.00,0.0355
1337.00,0.0354
1336.00,0.0353
1335.00,0.0352
1334.00,0.0350
1333.00,0.0349
1332.00,0.0348
1331.00,0.0348
1330.00,0.0348
1329.00,0.0348
1328.00,0.0349
1327.00,0.0349
1326.00,0.0350
1325.00,0.0352
1324.00,0.0353
1323.00,0.0353
1322.00,0.0354
1321.00,0.0355
1320.00,0.0355
1319.00,0.0356
1318.00,0.0357
1317.00,0.0358
1316.00,0.0359
1315.00,0.0359
1314.00,0.0360
1313.00,0.0361
1312.00,0.0362
1311.00,0.0363
1310.00,0.0364
1309.00,0.0365
1308.00,0.0366
1307.00,0.0368
1306.00,0.0370
1305.00,0.0372
1304.00,0.0375
1303.00,0.0379
1302.00,0.0382
1301.00,0.0386
1300.00,0.0391
1299.00,0.0396
1298.00,0.0402
1297.00,0.0408
1296.00,0.0414
1295.00,0.0421
1294.00,0.0429
1293.00,0.0438
1292.00,0.0447
1291.00,0.0457
1290.00,0.0467
1289.00,0.0478
1288.00,0.0489
1287.00,0.0501
1286.00,0.0513
1285.00,0.0526
1284.00,0.0539
1283.00,0.0553
1282.00,0.0568
1281.00,0.0583
1280.00,0.0599
1279.00,0.0615
1278.00,0.0632
1277.00,0.0649
1276.00,0.0667
1275.00,0.0685
1274.00,0.0703
1273.00,0.0721
1272.00,0.0739
1271.00,0.0757
1270.00,0.0774
1269.00,0.0791
1268.00,0.0807
1267.00,0.0822
1266.00,0.0837
1265.00,0.0851
1264.00,0.0864
1263.00,0.0876
1262.00,0.0886
1261.00,0.0897
1260.00,0.0906
1259.00,0.0914
1258.00,0.0922
1257.00,0.0929
1256.00,0.0935
1255.00,0.0941
1254.00,0.0946
1253.00,0.0951
1252.00,0.0955
1251.00,0.0958
1250.00,0.0961
1249.00,0.0964
1248.00,0.0967
1247.00,0.0970
1246.00,0.0973
1245.00,0.0976
1244.00,0.0980
1243.00,0.0984
1242.00,0.0989
1241.00,0.0995
1240.00,0.1000
1239.00,0.1006
1238.00,0.1012
1237.00,0.1018
1236.00,0.1024
1235.00,0.1029
1234.00,0.1033
1233.00,0.1037
1232.00,0.1041
1231.00,0.1043
1230.00,0.1046
1229.00,0.1048
1228.00,0.1049
1227.00,0.1048
1226.00,0.1047
1225.00,0.1045
1224.00,0.1043
1223.00,0.1039
1222.00,0.1035
1221.00,0.1029
1220.00,0.1022
1219.00,0.1015
1218.00,0.1007
1217.00,0.0998
1216.00,0.0988
1215.00,0.0977
1214.00,0.0964
1213.00,0.0952
1212.00,0.0938
1211.00,0.0923
1210.00,0.0908
1209.00,0.0893
1208.00,0.0878
1207.00,0.0862
1206.00,0.0846
1205.00,0.0830
1204.00,0.0815
1203.00,0.0800
1202.00,0.0786
1201.00,0.0775
1200.00,0.0764
1199.00,0.0755
1198.00,0.0749
1197.00,0.0744
1196.00,0.0740
1195.00,0.0738
1194.00,0.0737
1193.00,0.0736
1192.00,0.0734
1191.00,0.0731
1190.00,0.0726
1189.00,0.0720
1188.00,0.0712
1187.00,0.0704
1186.00,0.0695
1185.00,0.0688
1184.00,0.0682
1183.00,0.0678
1182.00,0.0676
1181.00,0.0674
1180.00,0.0675
1179.00,0.0676
1178.00,0.0680
1177.00,0.0684
1176.00,0.0689
1175.00,0.0695
1174.00,0.0703
1173.00,0.0712
1172.00,0.0723
1171.00,0.0735
1170.00,0.0749
1169.00,0.0763
1168.00,0.0779
1167.00,0.0795
1166.00,0.0811
1165.00,0.0828
1164.00,0.0843
1163.00,0.0858
1162.00,0.0871
1161.00,0.0882
1160.00,0.0891
1159.00,0.0897
1158.00,0.0900
1157.00,0.0902
1156.00,0.0902
1155.00,0.0900
1154.00,0.0896
1153.00,0.0890
1152.00,0.0882
1151.00,0.0873
1150.00,0.0864
1149.00,0.0854
1148.00,0.0844
1147.00,0.0833
1146.00,0.0822
1145.00,0.0812
1144.00,0.0803
1143.00,0.0795
1142.00,0.0789
1141.00,0.0786
1140.00,0.0784
1139.00,0.0786
1138.00,0.0791
1137.00,0.0801
1136.00,0.0813
1135.00,0.0829
1134.00,0.0848
1133.00,0.0869
1132.00,0.0890
1131.00,0.0912
1130.00,0.0931
1129.00,0.0947
1128.00,0.0959
1127.00,0.0967
1126.00,0.0971
1125.00,0.0972
1124.00,0.0970
1123.00,0.0967
1122.00,0.0962
1121.00,0.0957
1120.00,0.0951
1119.00,0.0946
1118.00,0.0941
1117.00,0.0937
1116.00,0.0933
1115.00,0.0930
1114.00,0.0928
1113.00,0.0925
1112.00,0.0923
1111.00,0.0920
1110.00,0.0919
1109.00,0.0918
1108.00,0.0919
1107.00,0.0921
1106.00,0.0925
1105.00,0.0932
1104.00,0.0940
1103.00,0.0950
1102.00,0.0963
1101.00,0.0977
1100.00,0.0992
1099.00,0.1008
1098.00,0.1024
1097.00,0.1039
1096.00,0.1054
1095.00,0.1067
1094.00,0.1078
1093.00,0.1087
1092.00,0.1096
1091.00,0.1105
1090.00,0.1116
1089.00,0.1128
1088.00,0.1141
1087.00,0.1154
1086.00,0.1168
1085.00,0.1184
1084.00,0.1201
1083.00,0.1220
1082.00,0.1241
1081.00,0.1264
1080.00,0.1289
1079.00,0.1314
1078.00,0.1341
1077.00,0.1369
1076.00,0.1396
1075.00,0.1423
1074.00,0.1449
1073.00,0.1474
1072.00,0.1498
1071.00,0.1520
1070.00,0.1540
1069.00,0.1556
1068.00,0.1569
1067.00,0.1575
1066.00,0.1575
1065.00,0.1569
1064.00,0.1556
1063.00,0.1538
1062.00,0.1518
1061.00,0.1496
1060.00,0.1476
1059.00,0.1460
1058.00,0.1447
1057.00,0.1439
1056.00,0.1435
1055.00,0.1434
1054.00,0.1436
1053.00,0.1440
1052.00,0.1445
1051.00,0.1451
1050.00,0.1459
1049.00,0.1470
1048.00,0.1483
1047.00,0.1499
1046.00,0.1517
1045.00,0.1535
1044.00,0.1554
1043.00,0.1569
1042.00,0.1581
1041.00,0.1588
1040.00,0.1590
1039.00,0.1587
1038.00,0.1582
1037.00,0.1575
1036.00,0.1568
1035.00,0.1563
1034.00,0.1560
1033.00,0.1561
1032.00,0.1564
1031.00,0.1567
1030.00,0.1569
1029.00,0.1567
1028.00,0.1560
1027.00,0.1548
1026.00,0.1530
1025.00,0.1507
1024.00,0.1479
1023.00,0.1448
1022.00,0.1413
1021.00,0.1378
1020.00,0.1342
1019.00,0.1307
1018.00,0.1273
1017.00,0.1243
1016.00,0.1215
1015.00,0.1191
1014.00,0.1170
1013.00,0.1153
1012.00,0.1139
1011.00,0.1128
1010.00,0.1121
1009.00,0.1119
1008.00,0.1119
1007.00,0.1120
1006.00,0.1121
1005.00,0.1120
1004.00,0.1116
1003.00,0.1107
1002.00,0.1092
1001.00,0.1071
1000.00,0.1046
999.00,0.1018
998.00,0.0991
997.00,0.0966
996.00,0.0944
995.00,0.0926
994.00,0.0912
993.00,0.0902
992.00,0.0893
991.00,0.0886
990.00,0.0879
989.00,0.0871
988.00,0.0861
987.00,0.0851
986.00,0.0839
985.00,0.0828
984.00,0.0817
983.00,0.0806
982.00,0.0798
981.00,0.0792
980.00,0.0789
979.00,0.0788
978.00,0.0788
977.00,0.0790
976.00,0.0792
975.00,0.0797
974.00,0.0803
973.00,0.0810
972.00,0.0817
971.00,0.0822
970.00,0.0823
969.00,0.0820
968.00,0.0810
967.00,0.0794
966.00,0.0773
965.00,0.0750
964.00,0.0725
963.00,0.0701
962.00,0.0680
961.00,0.0663
960.00,0.0650
959.00,0.0640
958.00,0.0632
957.00,0.0627
956.00,0.0625
955.00,0.0625
954.00,0.0627
953.00,0.0632
952.00,0.0638
951.00,0.0645
950.00,0.0653
949.00,0.0663
948.00,0.0674
947.00,0.0686
946.00,0.0700
945.00,0.0715
944.00,0.0732
943.00,0.0752
942.00,0.0776
941.00,0.0803
940.00,0.0834
939.00,0.0868
938.00,0.0906
937.00,0.0945
936.00,0.0985
935.00,0.1023
934.00,0.1058
933.00,0.1089
932.00,0.1116
931.00,0.1139
930.00,0.1158
929.00,0.1175
928.00,0.1189
927.00,0.1200
926.00,0.1208
925.00,0.1213
924.00,0.1216
923.00,0.1215
922.00,0.1213
921.00,0.1209
920.00,0.1204
919.00,0.1198
918.00,0.1191
917.00,0.1182
916.00,0.1171
915.00,0.1159
914.00,0.1145
913.00,0.1130
912.00,0.1113
911.00,0.1096
910.00,0.1079
909.00,0.1063
908.00,0.1047
907.00,0.1032
906.00,0.1019
905.00,0.1008
904.00,0.0999
903.00,0.0991
902.00,0.0984
901.00,0.0977
900.00,0.0970
899.00,0.0965
898.00,0.0961
897.00,0.0958
896.00,0.0955
895.00,0.0953
894.00,0.0952
893.00,0.0951
892.00,0.0950
891.00,0.0949
890.00,0.0947
889.00,0.0944
888.00,0.0939
887.00,0.0930
886.00,0.0920
885.00,0.0907
884.00,0.0891
883.00,0.0874
882.00,0.0858
881.00,0.0843
880.00,0.0833
879.00,0.0829
878.00,0.0829
877.00,0.0834
876.00,0.0840
875.00,0.0845
874.00,0.0848
873.00,0.0847
872.00,0.0844
871.00,0.0838
870.00,0.0831
869.00,0.0824
868.00,0.0818
867.00,0.0813
866.00,0.0811
865.00,0.0812
864.00,0.0816
863.00,0.0823
862.00,0.0833
861.00,0.0844
860.00,0.0858
859.00,0.0874
858.00,0.0893
857.00,0.0914
856.00,0.0936
855.00,0.0960
854.00,0.0987
853.00,0.1015
852.00,0.1043
851.00,0.1069
850.00,0.1093
849.00,0.1115
848.00,0.1134
847.00,0.1147
846.00,0.1154
845.00,0.1155
844.00,0.1149
843.00,0.1139
842.00,0.1123
841.00,0.1103
840.00,0.1080
839.00,0.1054
838.00,0.1029
837.00,0.1005
836.00,0.0983
835.00,0.0963
834.00,0.0944
833.00,0.0927
832.00,0.0912
831.00,0.0899
830.00,0.0889
829.00,0.0881
828.00,0.0874
827.00,0.0868
826.00,0.0863
825.00,0.0859
824.00,0.0857
823.00,0.0855
822.00,0.0854
821.00,0.0854
820.00,0.0855
819.00,0.0856
818.00,0.0859
817.00,0.0861
816.00,0.0863
815.00,0.0866
814.00,0.0870
813.00,0.0876
812.00,0.0883
811.00,0.0892
810.00,0.0902
809.00,0.0912
808.00,0.0921
807.00,0.0931
806.00,0.0940
805.00,0.0950
804.00,0.0958
803.00,0.0966
802.00,0.0972
801.00,0.0976
800.00,0.0979
799.00,0.0979
798.00,0.0979
797.00,0.0977
796.00,0.0974
795.00,0.0971
794.00,0.0969
793.00,0.0967
792.00,0.0965
791.00,0.0963
790.00,0.0961
789.00,0.0961
788.00,0.0961
787.00,0.0963
786.00,0.0965
785.00,0.0968
784.00,0.0971
783.00,0.0975
782.00,0.0981
781.00,0.0989
780.00,0.0997
779.00,0.1006
778.00,0.1016
777.00,0.1026
776.00,0.1034
775.00,0.1042
774.00,0.1048
773.00,0.1053
772.00,0.1055
771.00,0.1054
770.00,0.1053
769.00,0.1051
768.00,0.1049
767.00,0.1048
766.00,0.1047
765.00,0.1046
764.00,0.1046
763.00,0.1046
762.00,0.1048
761.00,0.1050
760.00,0.1053
759.00,0.1058
758.00,0.1064
757.00,0.1071
756.00,0.1079
755.00,0.1088
754.00,0.1099
753.00,0.1111
752.00,0.1125
751.00,0.1142
750.00,0.1161
749.00,0.1180
748.00,0.1199
747.00,0.1216
746.00,0.1233
745.00,0.1249
744.00,0.1263
743.00,0.1277
742.00,0.1289
741.00,0.1301
740.00,0.1312
739.00,0.1322
738.00,0.1333
737.00,0.1342
736.00,0.1350
735.00,0.1357
734.00,0.1363
733.00,0.1369
732.00,0.1375
731.00,0.1381
730.00,0.1389
729.00,0.1396
728.00,0.1403
727.00,0.1410
726.00,0.1417
725.00,0.1422
724.00,0.1426
723.00,0.1427
722.00,0.1428
721.00,0.1428
720.00,0.1427
719.00,0.1427
718.00,0.1427
717.00,0.1429
716.00,0.1432
715.00,0.1438
714.00,0.1447
713.00,0.1458
712.00,0.1470
711.00,0.1483
710.00,0.1498
709.00,0.1513
708.00,0.1529
707.00,0.1544
706.00,0.1559
705.00,0.1573
704.00,0.1584
703.00,0.1592
702.00,0.1599
701.00,0.1602
700.00,0.1602
699.00,0.1599
698.00,0.1593
697.00,0.1585
696.00,0.1576
695.00,0.1566
694.00,0.1558
693.00,0.1549
692.00,0.1540
691.00,0.1533
690.00,0.1527
689.00,0.1520
688.00,0.1513
687.00,0.1505
686.00,0.1500
685.00,0.1496
684.00,0.1493
683.00,0.1491
682.00,0.1491
681.00,0.1492
680.00,0.1494
679.00,0.1496
678.00,0.1500
677.00,0.1503
676.00,0.1507
675.00,0.1511
674.00,0.1516
673.00,0.1521
672.00,0.1525
671.00,0.1528
670.00,0.1531
669.00,0.1536
668.00,0.1546
667.00,0.1556
666.00,0.1561
665.00,0.1560
664.00,0.1560
663.00,0.1561
662.00,0.1564
661.00,0.1567
660.00,0.1568
659.00,0.1569
658.00,0.1571
657.00,0.1574
656.00,0.1576
655.00,0.1578
654.00,0.1581
653.00,0.1584
652.00,0.1585
651.00,0.1586
650.00,0.1589
649.00,0.1594
648.00,0.1598
647.00,0.1602
646.00,0.1605
645.00,0.1608
644.00,0.1609
643.00,0.1612
642.00,0.1615
641.00,0.1619
640.00,0.1623
639.00,0.1628
638.00,0.1634
637.00,0.1642
636.00,0.1649
635.00,0.1657
634.00,0.1667
633.00,0.1677
632.00,0.1689
631.00,0.1701
630.00,0.1714
629.00,0.1729
628.00,0.1744
627.00,0.1760
626.00,0.1776
625.00,0.1792
624.00,0.1807
623.00,0.1822
622.00,0.1835
621.00,0.1847
620.00,0.1858
619.00,0.1869
618.00,0.1881
617.00,0.1894
616.00,0.1907
615.00,0.1919
614.00,0.1930
613.00,0.1942
612.00,0.1952
611.00,0.1962
610.00,0.1972
609.00,0.1981
608.00,0.1988
607.00,0.1994
606.00,0.2000
605.00,0.2006
604.00,0.2010
603.00,0.2013
602.00,0.2015
601.00,0.2016
600.00,0.2017
599.00,0.2020
598.00,0.2024
597.00,0.2026
596.00,0.2029
595.00,0.2034
594.00,0.2040
593.00,0.2049
592.00,0.2057
591.00,0.2066
590.00,0.2077
589.00,0.2089
588.00,0.2103
587.00,0.2117
586.00,0.2131
585.00,0.2145
584.00,0.2158
583.00,0.2170
582.00,0.2183
581.00,0.2196
580.00,0.2209
579.00,0.2220
578.00,0.2231
577.00,0.2240
576.00,0.2248
575.00,0.2256
574.00,0.2262
573.00,0.2267
572.00,0.2271
571.00,0.2275
570.00,0.2281
569.00,0.2287
568.00,0.2291
567.00,0.2295
566.00,0.2299
565.00,0.2303
564.00,0.2306
563.00,0.2308
562.00,0.2310
561.00,0.2313
560.00,0.2317
559.00,0.2321
558.00,0.2323
557.00,0.2322
556.00,0.2321
555.00,0.2323
554.00,0.2328
553.00,0.2332
552.00,0.2333
551.00,0.2335
550.00,0.2340
549.00,0.2349
548.00,0.2357
547.00,0.2363
546.00,0.2366
545.00,0.2368
544.00,0.2369
543.00,0.2372
542.00,0.2376
541.00,0.2380
540.00,0.2381
539.00,0.2379
538.00,0.2378
537.00,0.2378
536.00,0.2376
535.00,0.2372
534.00,0.2368
533.00,0.2362
532.00,0.2355
531.00,0.2348
530.00,0.2347
529.00,0.2350
528.00,0.2354
527.00,0.2357
526.00,0.2356
525.00,0.2352
524.00,0.2349
523.00,0.2349
522.00,0.2354
521.00,0.2362
520.00,0.2371
519.00,0.2380
518.00,0.2386
517.00,0.2390
516.00,0.2390
515.00,0.2388
514.00,0.2386
513.00,0.2383
512.00,0.2379
511.00,0.2374
510.00,0.2372
509.00,0.2372
508.00,0.2374
507.00,0.2376
506.00,0.2376
505.00,0.2376
504.00,0.2376
503.00,0.2378
502.00,0.2383
501.00,0.2386
500.00,0.2387
499.00,0.2389
498.00,0.2395
497.00,0.2402
496.00,0.2406
495.00,0.2406
494.00,0.2403
493.00,0.2399
492.00,0.2399
491.00,0.2403
490.00,0.2411
489.00,0.2418
488.00,0.2422
487.00,0.2425
486.00,0.2428
485.00,0.2431
484.00,0.2433
483.00,0.2435
482.00,0.2437
481.00,0.2438
480.00,0.2438
479.00,0.2438
478.00,0.2439
477.00,0.2439
476.00,0.2437
475.00,0.2436
474.00,0.2438
473.00,0.2441
472.00,0.2446
471.00,0.2453
470.00,0.2462
469.00,0.2469
468.00,0.2470
467.00,0.2466
466.00,0.2458
465.00,0.2451
464.00,0.2450
463.00,0.2460
462.00,0.2474
461.00,0.2486
460.00,0.2489
459.00,0.2490
458.00,0.2493
457.00,0.2499
456.00,0.2503
455.00,0.2507
454.00,0.2512
453.00,0.2518
452.00,0.2525
451.00,0.2533
450.00,0.2539
