Created as New Dataset,Sample 015 By Administrator Date Thursday, May 29 2025
cm-1,A
4000.00,0.0132
3999.00,0.0132
3998.00,0.0132
3997.00,0.0131
3996.00,0.0131
3995.00,0.0131
3994.00,0.0131
3993.00,0.0131
3992.00,0.0130
3991.00,0.0130
3990.00,0.0131
3989.00,0.0131
3988.00,0.0131
3987.00,0.0131
3986.00,0.0131
3985.00,0.0130
3984.00,0.0130
3983.00,0.0130
3982.00,0.0130
3981.00,0.0130
3980.00,0.0130
3979.00,0.0130
3978.00,0.0130
3977.00,0.0130
3976.00,0.0130
3975.00,0.0130
3974.00,0.0130
3973.00,0.0131
3972.00,0.0131
3971.00,0.0131
3970.00,0.0131
3969.00,0.0130
3968.00,0.0130
3967.00,0.0130
3966.00,0.0130
3965.00,0.0130
3964.00,0.0130
3963.00,0.0130
3962.00,0.0130
3961.00,0.0130
3960.00,0.0130
3959.00,0.0130
3958.00,0.0130
3957.00,0.0130
3956.00,0.0130
3955.00,0.0130
3954.00,0.0130
3953.00,0.0129
3952.00,0.0129
3951.00,0.0129
3950.00,0.0129
3949.00,0.0129
3948.00,0.0129
3947.00,0.0129
3946.00,0.0129
3945.00,0.0129
3944.00,0.0129
3943.00,0.0129
3942.00,0.0129
3941.00,0.0128
3940.00,0.0128
3939.00,0.0128
3938.00,0.0128
3937.00,0.0128
3936.00,0.0129
3935.00,0.0129
3934.00,0.0129
3933.00,0.0129
3932.00,0.0129
3931.00,0.0129
3930.00,0.0129
3929.00,0.0129
3928.00,0.0129
3927.00,0.0129
3926.00,0.0129
3925.00,0.0128
3924.00,0.0128
3923.00,0.0128
3922.00,0.0127
3921.00,0.0127
3920.00,0.0127
3919.00,0.0127
3918.00,0.0127
3917.00,0.0127
3916.00,0.0127
3915.00,0.0127
3914.00,0.0127
3913.00,0.0127
3912.00,0.0127
3911.00,0.0127
3910.00,0.0128
3909.00,0.0128
3908.00,0.0129
3907.00,0.0129
3906.00,0.0129
3905.00,0.0129
3904.00,0.0129
3903.00,0.0129
3902.00,0.0128
3901.00,0.0128
3900.00,0.0128
3899.00,0.0129
3898.00,0.0129
3897.00,0.0129
3896.00,0.0129
3895.00,0.0129
3894.00,0.0128
3893.00,0.0128
3892.00,0.0127
3891.00,0.0128
3890.00,0.0128
3889.00,0.0129
3888.00,0.0128
3887.00,0.0128
3886.00,0.0128
3885.00,0.0128
3884.00,0.0128
3883.00,0.0128
3882.00,0.0128
3881.00,0.0127
3880.00,0.0127
3879.00,0.0127
3878.00,0.0127
3877.00,0.0127
3876.00,0.0127
3875.00,0.0128
3874.00,0.0129
3873.00,0.0130
3872.00,0.0129
3871.00,0.0128
3870.00,0.0128
3869.00,0.0128
3868.00,0.0128
3867.00,0.0127
3866.00,0.0127
3865.00,0.0127
3864.00,0.0127
3863.00,0.0126
3862.00,0.0126
3861.00,0.0126
3860.00,0.0126
3859.00,0.0126
3858.00,0.0127
3857.00,0.0127
3856.00,0.0127
3855.00,0.0126
3854.00,0.0126
3853.00,0.0127
3852.00,0.0127
3851.00,0.0126
3850.00,0.0125
3849.00,0.0124
3848.00,0.0124
3847.00,0.0125
3846.00,0.0125
3845.00,0.0125
3844.00,0.0125
3843.00,0.0126
3842.00,0.0127
3841.00,0.0127
3840.00,0.0127
3839.00,0.0128
3838.00,0.0127
3837.00,0.0127
3836.00,0.0127
3835.00,0.0126
3834.00,0.0126
3833.00,0.0126
3832.00,0.0126
3831.00,0.0126
3830.00,0.0125
3829.00,0.0125
3828.00,0.0124
3827.00,0.0124
3826.00,0.0125
3825.00,0.0126
3824.00,0.0127
3823.00,0.0127
3822.00,0.0127
3821.00,0.0128
3820.00,0.0128
3819.00,0.0127
3818.00,0.0125
3817.00,0.0124
3816.00,0.0124
3815.00,0.0124
3814.00,0.0123
3813.00,0.0123
3812.00,0.0123
3811.00,0.0123
3810.00,0.0123
3809.00,0.0123
3808.00,0.0123
3807.00,0.0123
3806.00,0.0124
3805.00,0.0124
3804.00,0.0124
3803.00,0.0123
3802.00,0.0124
3801.00,0.0124
3800.00,0.0125
3799.00,0.0124
3798.00,0.0123
3797.00,0.0122
3796.00,0.0122
3795.00,0.0122
3794.00,0.0121
3793.00,0.0120
3792.00,0.0120
3791.00,0.0120
3790.00,0.0120
3789.00,0.0120
3788.00,0.0120
3787.00,0.0120
3786.00,0.0119
3785.00,0.0119
3784.00,0.0120
3783.00,0.0120
3782.00,0.0120
3781.00,0.0120
3780.00,0.0120
3779.00,0.0120
3778.00,0.0120
3777.00,0.0119
3776.00,0.0119
3775.00,0.0119
3774.00,0.0119
3773.00,0.0119
3772.00,0.0119
3771.00,0.0119
3770.00,0.0119
3769.00,0.0119
3768.00,0.0119
3767.00,0.0119
3766.00,0.0119
3765.00,0.0119
3764.00,0.0120
3763.00,0.0120
3762.00,0.0120
3761.00,0.0120
3760.00,0.0121
3759.00,0.0121
3758.00,0.0121
3757.00,0.0122
3756.00,0.0122
3755.00,0.0122
3754.00,0.0123
3753.00,0.0123
3752.00,0.0122
3751.00,0.0122
3750.00,0.0122
3749.00,0.0122
3748.00,0.0122
3747.00,0.0121
3746.00,0.0120
3745.00,0.0120
3744.00,0.0120
3743.00,0.0120
3742.00,0.0119
3741.00,0.0118
3740.00,0.0118
3739.00,0.0119
3738.00,0.0119
3737.00,0.0119
3736.00,0.0118
3735.00,0.0118
3734.00,0.0117
3733.00,0.0116
3732.00,0.0116
3731.00,0.0115
3730.00,0.0115
3729.00,0.0114
3728.00,0.0114
3727.00,0.0114
3726.00,0.0114
3725.00,0.0114
3724.00,0.0113
3723.00,0.0113
3722.00,0.0113
3721.00,0.0113
3720.00,0.0113
3719.00,0.0113
3718.00,0.0113
3717.00,0.0114
3716.00,0.0115
3715.00,0.0115
3714.00,0.0116
3713.00,0.0116
3712.00,0.0117
3711.00,0.0117
3710.00,0.0117
3709.00,0.0116
3708.00,0.0115
3707.00,0.0114
3706.00,0.0114
3705.00,0.0114
3704.00,0.0114
3703.00,0.0114
3702.00,0.0114
3701.00,0.0114
3700.00,0.0113
3699.00,0.0113
3698.00,0.0113
3697.00,0.0114
3696.00,0.0114
3695.00,0.0115
3694.00,0.0116
3693.00,0.0117
3692.00,0.0118
3691.00,0.0119
3690.00,0.0120
3689.00,0.0119
3688.00,0.0118
3687.00,0.0117
3686.00,0.0116
3685.00,0.0116
3684.00,0.0116
3683.00,0.0117
3682.00,0.0118
3681.00,0.0119
3680.00,0.0120
3679.00,0.0121
3678.00,0.0122
3677.00,0.0122
3676.00,0.0123
3675.00,0.0124
3674.00,0.0125
3673.00,0.0125
3672.00,0.0125
3671.00,0.0126
3670.00,0.0127
3669.00,0.0128
3668.00,0.0129
3667.00,0.0129
3666.00,0.0129
3665.00,0.0130
3664.00,0.0131
3663.00,0.0132
3662.00,0.0133
3661.00,0.0135
3660.00,0.0136
3659.00,0.0137
3658.00,0.0138
3657.00,0.0140
3656.00,0.0142
3655.00,0.0144
3654.00,0.0145
3653.00,0.0147
3652.00,0.0149
3651.00,0.0151
3650.00,0.0153
3649.00,0.0156
3648.00,0.0158
3647.00,0.0160
3646.00,0.0162
3645.00,0.0164
3644.00,0.0165
3643.00,0.0167
3642.00,0.0168
3641.00,0.0169
3640.00,0.0171
3639.00,0.0173
3638.00,0.0175
3637.00,0.0177
3636.00,0.0179
3635.00,0.0182
3634.00,0.0185
3633.00,0.0187
3632.00,0.0189
3631.00,0.0191
3630.00,0.0193
3629.00,0.0197
3628.00,0.0201
3627.00,0.0205
3626.00,0.0208
3625.00,0.0210
3624.00,0.0212
3623.00,0.0214
3622.00,0.0216
3621.00,0.0219
3620.00,0.0222
3619.00,0.0225
3618.00,0.0229
3617.00,0.0232
3616.00,0.0234
3615.00,0.0237
3614.00,0.0239
3613.00,0.0242
3612.00,0.0245
3611.00,0.0248
3610.00,0.0251
3609.00,0.0253
3608.00,0.0256
3607.00,0.0260
3606.00,0.0263
3605.00,0.0266
3604.00,0.0269
3603.00,0.0271
3602.00,0.0274
3601.00,0.0277
3600.00,0.0281
3599.00,0.0284
3598.00,0.0287
3597.00,0.0289
3596.00,0.0292
3595.00,0.0296
3594.00,0.0300
3593.00,0.0304
3592.00,0.0308
3591.00,0.0311
3590.00,0.0312
3589.00,0.0314
3588.00,0.0317
3587.00,0.0322
3586.00,0.0328
3585.00,0.0333
3584.00,0.0337
3583.00,0.0341
3582.00,0.0344
3581.00,0.0346
3580.00,0.0349
3579.00,0.0351
3578.00,0.0354
3577.00,0.0357
3576.00,0.0360
3575.00,0.0364
3574.00,0.0366
3573.00,0.0369
3572.00,0.0371
3571.00,0.0372
3570.00,0.0373
3569.00,0.0373
3568.00,0.0375
3567.00,0.0379
3566.00,0.0384
3565.00,0.0388
3564.00,0.0392
3563.00,0.0395
3562.00,0.0397
3561.00,0.0398
3560.00,0.0400
3559.00,0.0401
3558.00,0.0403
3557.00,0.0405
3556.00,0.0407
3555.00,0.0409
3554.00,0.0410
3553.00,0.0413
3552.00,0.0416
3551.00,0.0418
3550.00,0.0421
3549.00,0.0422
3548.00,0.0424
3547.00,0.0425
3546.00,0.0428
3545.00,0.0432
3544.00,0.0436
3543.00,0.0439
3542.00,0.0441
3541.00,0.0443
3540.00,0.0445
3539.00,0.0447
3538.00,0.0450
3537.00,0.0452
3536.00,0.0455
3535.00,0.0457
3534.00,0.0459
3533.00,0.0461
3532.00,0.0463
3531.00,0.0465
3530.00,0.0467
3529.00,0.0470
3528.00,0.0473
3527.00,0.0475
3526.00,0.0477
3525.00,0.0479
3524.00,0.0481
3523.00,0.0482
3522.00,0.0484
3521.00,0.0486
3520.00,0.0487
3519.00,0.0488
3518.00,0.0489
3517.00,0.0490
3516.00,0.0492
3515.00,0.0493
3514.00,0.0494
3513.00,0.0495
3512.00,0.0496
3511.00,0.0497
3510.00,0.0498
3509.00,0.0500
3508.00,0.0503
3507.00,0.0505
3506.00,0.0506
3505.00,0.0507
3504.00,0.0509
3503.00,0.0511
3502.00,0.0513
3501.00,0.0515
3500.00,0.0517
3499.00,0.0518
3498.00,0.0518
3497.00,0.0520
3496.00,0.0521
3495.00,0.0523
3494.00,0.0525
3493.00,0.0527
3492.00,0.0529
3491.00,0.0530
3490.00,0.0532
3489.00,0.0533
3488.00,0.0535
3487.00,0.0537
3486.00,0.0538
3485.00,0.0539
3484.00,0.0540
3483.00,0.0542
3482.00,0.0544
3481.00,0.0546
3480.00,0.0548
3479.00,0.0550
3478.00,0.0551
3477.00,0.0552
3476.00,0.0553
3475.00,0.0555
3474.00,0.0557
3473.00,0.0558
3472.00,0.0560
3471.00,0.0562
3470.00,0.0563
3469.00,0.0565
3468.00,0.0566
3467.00,0.0568
3466.00,0.0569
3465.00,0.0570
3464.00,0.0571
3463.00,0.0572
3462.00,0.0574
3461.00,0.0576
3460.00,0.0577
3459.00,0.0579
3458.00,0.0581
3457.00,0.0583
3456.00,0.0584
3455.00,0.0586
3454.00,0.0587
3453.00,0.0588
3452.00,0.0589
3451.00,0.0591
3450.00,0.0592
3449.00,0.0593
3448.00,0.0595
3447.00,0.0596
3446.00,0.0598
3445.00,0.0600
3444.00,0.0602
3443.00,0.0603
3442.00,0.0604
3441.00,0.0606
3440.00,0.0607
3439.00,0.0608
3438.00,0.0610
3437.00,0.0612
3436.00,0.0613
3435.00,0.0614
3434.00,0.0616
3433.00,0.0618
3432.00,0.0619
3431.00,0.0621
3430.00,0.0623
3429.00,0.0624
3428.00,0.0625
3427.00,0.0626
3426.00,0.0627
3425.00,0.0628
3424.00,0.0630
3423.00,0.0631
3422.00,0.0632
3421.00,0.0633
3420.00,0.0634
3419.00,0.0636
3418.00,0.0638
3417.00,0.0639
3416.00,0.0641
3415.00,0.0642
3414.00,0.0643
3413.00,0.0645
3412.00,0.0646
3411.00,0.0647
3410.00,0.0648
3409.00,0.0649
3408.00,0.0650
3407.00,0.0650
3406.00,0.0651
3405.00,0.0652
3404.00,0.0653
3403.00,0.0654
3402.00,0.0655
3401.00,0.0656
3400.00,0.0656
3399.00,0.0656
3398.00,0.0656
3397.00,0.0656
3396.00,0.0657
3395.00,0.0658
3394.00,0.0658
3393.00,0.0659
3392.00,0.0659
3391.00,0.0658
3390.00,0.0658
3389.00,0.0657
3388.00,0.0657
3387.00,0.0657
3386.00,0.0657
3385.00,0.0657
3384.00,0.0657
3383.00,0.0657
3382.00,0.0657
3381.00,0.0657
3380.00,0.0657
3379.00,0.0657
3378.00,0.0657
3377.00,0.0657
3376.00,0.0656
3375.00,0.0656
3374.00,0.0656
3373.00,0.0656
3372.00,0.0656
3371.00,0.0655
3370.00,0.0655
3369.00,0.0654
3368.00,0.0654
3367.00,0.0653
3366.00,0.0653
3365.00,0.0652
3364.00,0.0652
3363.00,0.0652
3362.00,0.0652
3361.00,0.0651
3360.00,0.0651
3359.00,0.0649
3358.00,0.0648
3357.00,0.0647
3356.00,0.0646
3355.00,0.0646
3354.00,0.0645
3353.00,0.0645
3352.00,0.0645
3351.00,0.0644
3350.00,0.0643
3349.00,0.0643
3348.00,0.0642
3347.00,0.0641
3346.00,0.0641
3345.00,0.0640
3344.00,0.0639
3343.00,0.0639
3342.00,0.0638
3341.00,0.0637
3340.00,0.0636
3339.00,0.0635
3338.00,0.0634
3337.00,0.0633
3336.00,0.0632
3335.00,0.0632
3334.00,0.0631
3333.00,0.0631
3332.00,0.0630
3331.00,0.0630
3330.00,0.0629
3329.00,0.0628
3328.00,0.0627
3327.00,0.0626
3326.00,0.0625
3325.00,0.0625
3324.00,0.0624
3323.00,0.0623
3322.00,0.0623
3321.00,0.0622
3320.00,0.0621
3319.00,0.0621
3318.00,0.0620
3317.00,0.0619
3316.00,0.0618
3315.00,0.0617
3314.00,0.0615
3313.00,0.0614
3312.00,0.0613
3311.00,0.0612
3310.00,0.0611
3309.00,0.0611
3308.00,0.0611
3307.00,0.0610
3306.00,0.0610
3305.00,0.0609
3304.00,0.0608
3303.00,0.0607
3302.00,0.0606
3301.00,0.0605
3300.00,0.0604
3299.00,0.0603
3298.00,0.0603
3297.00,0.0602
3296.00,0.0602
3295.00,0.0601
3294.00,0.0600
3293.00,0.0599
3292.00,0.0598
3291.00,0.0597
3290.00,0.0597
3289.00,0.0596
3288.00,0.0595
3287.00,0.0595
3286.00,0.0594
3285.00,0.0593
3284.00,0.0592
3283.00,0.0591
3282.00,0.0590
3281.00,0.0590
3280.00,0.0589
3279.00,0.0588
3278.00,0.0587
3277.00,0.0586
3276.00,0.0585
3275.00,0.0585
3274.00,0.0584
3273.00,0.0584
3272.00,0.0583
3271.00,0.0582
3270.00,0.0582
3269.00,0.0581
3268.00,0.0579
3267.00,0.0578
3266.00,0.0577
3265.00,0.0576
3264.00,0.0575
3263.00,0.0574
3262.00,0.0573
3261.00,0.0571
3260.00,0.0571
3259.00,0.0570
3258.00,0.0569
3257.00,0.0568
3256.00,0.0567
3255.00,0.0566
3254.00,0.0565
3253.00,0.0565
3252.00,0.0564
3251.00,0.0563
3250.00,0.0562
3249.00,0.0560
3248.00,0.0559
3247.00,0.0558
3246.00,0.0557
3245.00,0.0556
3244.00,0.0555
3243.00,0.0554
3242.00,0.0553
3241.00,0.0552
3240.00,0.0550
3239.00,0.0548
3238.00,0.0546
3237.00,0.0545
3236.00,0.0543
3235.00,0.0542
3234.00,0.0541
3233.00,0.0540
3232.00,0.0538
3231.00,0.0537
3230.00,0.0535
3229.00,0.0534
3228.00,0.0533
3227.00,0.0532
3226.00,0.0530
3225.00,0.0529
3224.00,0.0527
3223.00,0.0526
3222.00,0.0524
3221.00,0.0522
3220.00,0.0521
3219.00,0.0519
3218.00,0.0517
3217.00,0.0516
3216.00,0.0514
3215.00,0.0512
3214.00,0.0510
3213.00,0.0509
3212.00,0.0507
3211.00,0.0506
3210.00,0.0504
3209.00,0.0502
3208.00,0.0500
3207.00,0.0499
3206.00,0.0497
3205.00,0.0495
3204.00,0.0493
3203.00,0.0492
3202.00,0.0490
3201.00,0.0488
3200.00,0.0486
3199.00,0.0484
3198.00,0.0482
3197.00,0.0481
3196.00,0.0479
3195.00,0.0478
3194.00,0.0476
3193.00,0.0474
3192.00,0.0472
3191.00,0.0470
3190.00,0.0468
3189.00,0.0466
3188.00,0.0464
3187.00,0.0463
3186.00,0.0461
3185.00,0.0459
3184.00,0.0457
3183.00,0.0455
3182.00,0.0454
3181.00,0.0452
3180.00,0.0450
3179.00,0.0449
3178.00,0.0447
3177.00,0.0445
3176.00,0.0443
3175.00,0.0442
3174.00,0.0441
3173.00,0.0439
3172.00,0.0437
3171.00,0.0435
3170.00,0.0433
3169.00,0.0430
3168.00,0.0429
3167.00,0.0427
3166.00,0.0425
3165.00,0.0423
3164.00,0.0422
3163.00,0.0420
3162.00,0.0418
3161.00,0.0416
3160.00,0.0415
3159.00,0.0413
3158.00,0.0412
3157.00,0.0411
3156.00,0.0410
3155.00,0.0408
3154.00,0.0407
3153.00,0.0405
3152.00,0.0403
3151.00,0.0401
3150.00,0.0399
3149.00,0.0397
3148.00,0.0395
3147.00,0.0394
3146.00,0.0393
3145.00,0.0391
3144.00,0.0390
3143.00,0.0388
3142.00,0.0387
3141.00,0.0385
3140.00,0.0384
3139.00,0.0382
3138.00,0.0381
3137.00,0.0379
3136.00,0.0378
3135.00,0.0376
3134.00,0.0375
3133.00,0.0373
3132.00,0.0371
3131.00,0.0370
3130.00,0.0368
3129.00,0.0367
3128.00,0.0365
3127.00,0.0363
3126.00,0.0361
3125.00,0.0360
3124.00,0.0359
3123.00,0.0358
3122.00,0.0357
3121.00,0.0356
3120.00,0.0354
3119.00,0.0352
3118.00,0.0350
3117.00,0.0348
3116.00,0.0347
3115.00,0.0346
3114.00,0.0345
3113.00,0.0344
3112.00,0.0343
3111.00,0.0342
3110.00,0.0341
3109.00,0.0340
3108.00,0.0338
3107.00,0.0336
3106.00,0.0335
3105.00,0.0333
3104.00,0.0332
3103.00,0.0331
3102.00,0.0330
3101.00,0.0329
3100.00,0.0328
3099.00,0.0327
3098.00,0.0325
3097.00,0.0324
3096.00,0.0323
3095.00,0.0322
3094.00,0.0321
3093.00,0.0319
3092.00,0.0318
3091.00,0.0317
3090.00,0.0316
3089.00,0.0315
3088.00,0.0314
3087.00,0.0313
3086.00,0.0312
3085.00,0.0311
3084.00,0.0310
3083.00,0.0308
3082.00,0.0307
3081.00,0.0306
3080.00,0.0305
3079.00,0.0304
3078.00,0.0303
3077.00,0.0302
3076.00,0.0301
3075.00,0.0300
3074.00,0.0299
3073.00,0.0297
3072.00,0.0297
3071.00,0.0296
3070.00,0.0295
3069.00,0.0294
3068.00,0.0293
3067.00,0.0293
3066.00,0.0291
3065.00,0.0290
3064.00,0.0289
3063.00,0.0288
3062.00,0.0287
3061.00,0.0286
3060.00,0.0286
3059.00,0.0285
3058.00,0.0284
3057.00,0.0283
3056.00,0.0282
3055.00,0.0281
3054.00,0.0280
3053.00,0.0280
3052.00,0.0279
3051.00,0.0279
3050.00,0.0278
3049.00,0.0277
3048.00,0.0276
3047.00,0.0275
3046.00,0.0274
3045.00,0.0274
3044.00,0.0273
3043.00,0.0272
3042.00,0.0272
3041.00,0.0271
3040.00,0.0271
3039.00,0.0270
3038.00,0.0269
3037.00,0.0269
3036.00,0.0269
3035.00,0.0268
3034.00,0.0267
3033.00,0.0267
3032.00,0.0266
3031.00,0.0266
3030.00,0.0265
3029.00,0.0265
3028.00,0.0264
3027.00,0.0263
3026.00,0.0263
3025.00,0.0262
3024.00,0.0262
3023.00,0.0262
3022.00,0.0262
3021.00,0.0262
3020.00,0.0261
3019.00,0.0261
3018.00,0.0260
3017.00,0.0260
3016.00,0.0260
3015.00,0.0260
3014.00,0.0259
3013.00,0.0259
3012.00,0.0259
3011.00,0.0259
3010.00,0.0259
3009.00,0.0259
3008.00,0.0259
3007.00,0.0259
3006.00,0.0259
3005.00,0.0259
3004.00,0.0259
3003.00,0.0259
3002.00,0.0259
3001.00,0.0259
3000.00,0.0259
2999.00,0.0260
2998.00,0.0260
2997.00,0.0261
2996.00,0.0261
2995.00,0.0262
2994.00,0.0262
2993.00,0.0262
2992.00,0.0263
2991.00,0.0264
2990.00,0.0264
2989.00,0.0265
2988.00,0.0265
2987.00,0.0266
2986.00,0.0267
2985.00,0.0268
2984.00,0.0268
2983.00,0.0269
2982.00,0.0270
2981.00,0.0271
2980.00,0.0272
2979.00,0.0273
2978.00,0.0273
2977.00,0.0274
2976.00,0.0275
2975.00,0.0275
2974.00,0.0276
2973.00,0.0277
2972.00,0.0278
2971.00,0.0279
2970.00,0.0280
2969.00,0.0281
2968.00,0.0282
2967.00,0.0283
2966.00,0.0284
2965.00,0.0285
2964.00,0.0285
2963.00,0.0285
2962.00,0.0285
2961.00,0.0285
2960.00,0.0285
2959.00,0.0285
2958.00,0.0286
2957.00,0.0286
2956.00,0.0287
2955.00,0.0287
2954.00,0.0286
2953.00,0.0286
2952.00,0.0286
2951.00,0.0286
2950.00,0.0286
2949.00,0.0286
2948.00,0.0286
2947.00,0.0286
2946.00,0.0286
2945.00,0.0286
2944.00,0.0285
2943.00,0.0285
2942.00,0.0285
2941.00,0.0284
2940.00,0.0283
2939.00,0.0283
2938.00,0.0283
2937.00,0.0282
2936.00,0.0282
2935.00,0.0281
2934.00,0.0281
2933.00,0.0281
2932.00,0.0281
2931.00,0.0281
2930.00,0.0281
2929.00,0.0281
2928.00,0.0281
2927.00,0.0281
2926.00,0.0282
2925.00,0.0282
2924.00,0.0283
2923.00,0.0283
2922.00,0.0283
2921.00,0.0283
2920.00,0.0284
2919.00,0.0285
2918.00,0.0286
2917.00,0.0286
2916.00,0.0287
2915.00,0.0288
2914.00,0.0288
2913.00,0.0289
2912.00,0.0290
2911.00,0.0291
2910.00,0.0291
2909.00,0.0291
2908.00,0.0292
2907.00,0.0292
2906.00,0.0293
2905.00,0.0293
2904.00,0.0294
2903.00,0.0294
2902.00,0.0293
2901.00,0.0293
2900.00,0.0293
2899.00,0.0292
2898.00,0.0292
2897.00,0.0291
2896.00,0.0290
2895.00,0.0290
2894.00,0.0289
2893.00,0.0288
2892.00,0.0287
2891.00,0.0286
2890.00,0.0285
2889.00,0.0284
2888.00,0.0282
2887.00,0.0281
2886.00,0.0280
2885.00,0.0278
2884.00,0.0277
2883.00,0.0276
2882.00,0.0274
2881.00,0.0274
2880.00,0.0273
2879.00,0.0272
2878.00,0.0271
2877.00,0.0270
2876.00,0.0269
2875.00,0.0268
2874.00,0.0267
2873.00,0.0266
2872.00,0.0266
2871.00,0.0265
2870.00,0.0264
2869.00,0.0264
2868.00,0.0263
2867.00,0.0262
2866.00,0.0261
2865.00,0.0260
2864.00,0.0259
2863.00,0.0258
2862.00,0.0257
2861.00,0.0256
2860.00,0.0256
2859.00,0.0255
2858.00,0.0254
2857.00,0.0253
2856.00,0.0252
2855.00,0.0252
2854.00,0.0251
2853.00,0.0250
2852.00,0.0249
2851.00,0.0249
2850.00,0.0248
2849.00,0.0246
2848.00,0.0245
2847.00,0.0244
2846.00,0.0243
2845.00,0.0242
2844.00,0.0242
2843.00,0.0241
2842.00,0.0241
2841.00,0.0240
2840.00,0.0239
2839.00,0.0238
2838.00,0.0237
2837.00,0.0237
2836.00,0.0236
2835.00,0.0235
2834.00,0.0235
2833.00,0.0235
2832.00,0.0234
2831.00,0.0234
2830.00,0.0234
2829.00,0.0233
2828.00,0.0232
2827.00,0.0231
2826.00,0.0231
2825.00,0.0230
2824.00,0.0229
2823.00,0.0229
2822.00,0.0228
2821.00,0.0228
2820.00,0.0227
2819.00,0.0227
2818.00,0.0226
2817.00,0.0226
2816.00,0.0226
2815.00,0.0226
2814.00,0.0225
2813.00,0.0225
2812.00,0.0224
2811.00,0.0224
2810.00,0.0224
2809.00,0.0223
2808.00,0.0223
2807.00,0.0222
2806.00,0.0222
2805.00,0.0222
2804.00,0.0222
2803.00,0.0221
2802.00,0.0221
2801.00,0.0221
2800.00,0.0221
2799.00,0.0220
2798.00,0.0220
2797.00,0.0220
2796.00,0.0219
2795.00,0.0219
2794.00,0.0219
2793.00,0.0218
2792.00,0.0218
2791.00,0.0218
2790.00,0.0218
2789.00,0.0218
2788.00,0.0218
2787.00,0.0218
2786.00,0.0218
2785.00,0.0218
2784.00,0.0218
2783.00,0.0217
2782.00,0.0217
2781.00,0.0216
2780.00,0.0216
2779.00,0.0215
2778.00,0.0215
2777.00,0.0215
2776.00,0.0215
2775.00,0.0215
2774.00,0.0214
2773.00,0.0213
2772.00,0.0213
2771.00,0.0213
2770.00,0.0213
2769.00,0.0213
2768.00,0.0213
2767.00,0.0212
2766.00,0.0212
2765.00,0.0212
2764.00,0.0212
2763.00,0.0211
2762.00,0.0211
2761.00,0.0210
2760.00,0.0210
2759.00,0.0210
2758.00,0.0210
2757.00,0.0210
2756.00,0.0210
2755.00,0.0210
2754.00,0.0210
2753.00,0.0209
2752.00,0.0209
2751.00,0.0209
2750.00,0.0209
2749.00,0.0209
2748.00,0.0209
2747.00,0.0209
2746.00,0.0208
2745.00,0.0208
2744.00,0.0208
2743.00,0.0208
2742.00,0.0207
2741.00,0.0207
2740.00,0.0207
2739.00,0.0207
2738.00,0.0207
2737.00,0.0207
2736.00,0.0207
2735.00,0.0207
2734.00,0.0207
2733.00,0.0207
2732.00,0.0207
2731.00,0.0207
2730.00,0.0207
2729.00,0.0206
2728.00,0.0206
2727.00,0.0206
2726.00,0.0206
2725.00,0.0206
2724.00,0.0206
2723.00,0.0206
2722.00,0.0206
2721.00,0.0205
2720.00,0.0205
2719.00,0.0205
2718.00,0.0205
2717.00,0.0206
2716.00,0.0205
2715.00,0.0205
2714.00,0.0205
2713.00,0.0205
2712.00,0.0205
2711.00,0.0205
2710.00,0.0205
2709.00,0.0204
2708.00,0.0204
2707.00,0.0203
2706.00,0.0203
2705.00,0.0203
2704.00,0.0203
2703.00,0.0203
2702.00,0.0202
2701.00,0.0202
2700.00,0.0202
2699.00,0.0202
2698.00,0.0202
2697.00,0.0203
2696.00,0.0202
2695.00,0.0202
2694.00,0.0202
2693.00,0.0202
2692.00,0.0202
2691.00,0.0202
2690.00,0.0202
2689.00,0.0203
2688.00,0.0203
2687.00,0.0202
2686.00,0.0202
2685.00,0.0201
2684.00,0.0201
2683.00,0.0201
2682.00,0.0200
2681.00,0.0201
2680.00,0.0201
2679.00,0.0201
2678.00,0.0201
2677.00,0.0200
2676.00,0.0200
2675.00,0.0199
2674.00,0.0199
2673.00,0.0199
2672.00,0.0199
2671.00,0.0199
2670.00,0.0199
2669.00,0.0199
2668.00,0.0199
2667.00,0.0199
2666.00,0.0199
2665.00,0.0200
2664.00,0.0200
2663.00,0.0200
2662.00,0.0201
2661.00,0.0201
2660.00,0.0201
2659.00,0.0202
2658.00,0.0202
2657.00,0.0202
2656.00,0.0202
2655.00,0.0202
2654.00,0.0202
2653.00,0.0201
2652.00,0.0201
2651.00,0.0201
2650.00,0.0201
2649.00,0.0201
2648.00,0.0200
2647.00,0.0200
2646.00,0.0199
2645.00,0.0198
2644.00,0.0198
2643.00,0.0198
2642.00,0.0198
2641.00,0.0199
2640.00,0.0199
2639.00,0.0198
2638.00,0.0198
2637.00,0.0197
2636.00,0.0196
2635.00,0.0196
2634.00,0.0196
2633.00,0.0196
2632.00,0.0195
2631.00,0.0195
2630.00,0.0194
2629.00,0.0194
2628.00,0.0193
2627.00,0.0193
2626.00,0.0192
2625.00,0.0192
2624.00,0.0192
2623.00,0.0192
2622.00,0.0192
2621.00,0.0192
2620.00,0.0192
2619.00,0.0191
2618.00,0.0191
2617.00,0.0191
2616.00,0.0192
2615.00,0.0192
2614.00,0.0192
2613.00,0.0192
2612.00,0.0191
2611.00,0.0190
2610.00,0.0190
2609.00,0.0189
2608.00,0.0188
2607.00,0.0187
2606.00,0.0187
2605.00,0.0187
2604.00,0.0187
2603.00,0.0186
2602.00,0.0185
2601.00,0.0185
2600.00,0.0185
2599.00,0.0186
2598.00,0.0186
2597.00,0.0186
2596.00,0.0185
2595.00,0.0185
2594.00,0.0185
2593.00,0.0185
2592.00,0.0185
2591.00,0.0184
2590.00,0.0184
2589.00,0.0183
2588.00,0.0183
2587.00,0.0182
2586.00,0.0181
2585.00,0.0181
2584.00,0.0181
2583.00,0.0181
2582.00,0.0180
2581.00,0.0180
2580.00,0.0180
2579.00,0.0180
2578.00,0.0180
2577.00,0.0181
2576.00,0.0182
2575.00,0.0182
2574.00,0.0181
2573.00,0.0181
2572.00,0.0180
2571.00,0.0179
2570.00,0.0179
2569.00,0.0180
2568.00,0.0180
2567.00,0.0180
2566.00,0.0180
2565.00,0.0179
2564.00,0.0179
2563.00,0.0179
2562.00,0.0178
2561.00,0.0178
2560.00,0.0178
2559.00,0.0178
2558.00,0.0177
2557.00,0.0177
2556.00,0.0177
2555.00,0.0176
2554.00,0.0176
2553.00,0.0176
2552.00,0.0176
2551.00,0.0177
2550.00,0.0177
2549.00,0.0177
2548.00,0.0177
2547.00,0.0177
2546.00,0.0176
2545.00,0.0176
2544.00,0.0176
2543.00,0.0177
2542.00,0.0176
2541.00,0.0176
2540.00,0.0176
2539.00,0.0176
2538.00,0.0176
2537.00,0.0176
2536.00,0.0175
2535.00,0.0175
2534.00,0.0175
2533.00,0.0175
2532.00,0.0175
2531.00,0.0174
2530.00,0.0174
2529.00,0.0174
2528.00,0.0175
2527.00,0.0175
2526.00,0.0175
2525.00,0.0175
2524.00,0.0174
2523.00,0.0174
2522.00,0.0174
2521.00,0.0174
2520.00,0.0174
2519.00,0.0173
2518.00,0.0173
2517.00,0.0173
2516.00,0.0173
2515.00,0.0173
2514.00,0.0173
2513.00,0.0172
2512.00,0.0172
2511.00,0.0171
2510.00,0.0171
2509.00,0.0172
2508.00,0.0172
2507.00,0.0172
2506.00,0.0172
2505.00,0.0172
2504.00,0.0172
2503.00,0.0172
2502.00,0.0173
2501.00,0.0173
2500.00,0.0172
2499.00,0.0172
2498.00,0.0172
2497.00,0.0172
2496.00,0.0171
2495.00,0.0171
2494.00,0.0171
2493.00,0.0171
2492.00,0.0171
2491.00,0.0171
2490.00,0.0171
2489.00,0.0172
2488.00,0.0172
2487.00,0.0172
2486.00,0.0171
2485.00,0.0171
2484.00,0.0171
2483.00,0.0171
2482.00,0.0171
2481.00,0.0172
2480.00,0.0171
2479.00,0.0171
2478.00,0.0171
2477.00,0.0170
2476.00,0.0169
2475.00,0.0169
2474.00,0.0169
2473.00,0.0170
2472.00,0.0170
2471.00,0.0170
2470.00,0.0170
2469.00,0.0169
2468.00,0.0169
2467.00,0.0168
2466.00,0.0168
2465.00,0.0168
2464.00,0.0168
2463.00,0.0169
2462.00,0.0169
2461.00,0.0169
2460.00,0.0169
2459.00,0.0170
2458.00,0.0170
2457.00,0.0171
2456.00,0.0171
2455.00,0.0171
2454.00,0.0170
2453.00,0.0170
2452.00,0.0169
2451.00,0.0168
2450.00,0.0168
2449.00,0.0169
2448.00,0.0169
2447.00,0.0169
2446.00,0.0169
2445.00,0.0168
2444.00,0.0168
2443.00,0.0167
2442.00,0.0166
2441.00,0.0166
2440.00,0.0165
2439.00,0.0166
2438.00,0.0166
2437.00,0.0166
2436.00,0.0166
2435.00,0.0166
2434.00,0.0165
2433.00,0.0164
2432.00,0.0164
2431.00,0.0165
2430.00,0.0165
2429.00,0.0166
2428.00,0.0166
2427.00,0.0166
2426.00,0.0166
2425.00,0.0165
2424.00,0.0165
2423.00,0.0164
2422.00,0.0163
2421.00,0.0163
2420.00,0.0163
2419.00,0.0163
2418.00,0.0163
2417.00,0.0164
2416.00,0.0164
2415.00,0.0165
2414.00,0.0165
2413.00,0.0165
2412.00,0.0165
2411.00,0.0165
2410.00,0.0164
2409.00,0.0164
2408.00,0.0163
2407.00,0.0163
2406.00,0.0162
2405.00,0.0161
2404.00,0.0161
2403.00,0.0162
2402.00,0.0162
2401.00,0.0162
2400.00,0.0162
2399.00,0.0162
2398.00,0.0161
2397.00,0.0161
2396.00,0.0160
2395.00,0.0160
2394.00,0.0160
2393.00,0.0160
2392.00,0.0161
2391.00,0.0161
2390.00,0.0161
2389.00,0.0161
2388.00,0.0160
2387.00,0.0160
2386.00,0.0160
2385.00,0.0160
2384.00,0.0159
2383.00,0.0159
2382.00,0.0158
2381.00,0.0158
2380.00,0.0157
2379.00,0.0156
2378.00,0.0156
2377.00,0.0156
2376.00,0.0156
2375.00,0.0157
2374.00,0.0158
2373.00,0.0158
2372.00,0.0158
2371.00,0.0158
2370.00,0.0158
2369.00,0.0157
2368.00,0.0157
2367.00,0.0156
2366.00,0.0155
2365.00,0.0155
2364.00,0.0156
2363.00,0.0157
2362.00,0.0158
2361.00,0.0159
2360.00,0.0159
2359.00,0.0158
2358.00,0.0159
2357.00,0.0159
2356.00,0.0160
2355.00,0.0160
2354.00,0.0160
2353.00,0.0160
2352.00,0.0160
2351.00,0.0161
2350.00,0.0161
2349.00,0.0162
2348.00,0.0162
2347.00,0.0162
2346.00,0.0161
2345.00,0.0161
2344.00,0.0161
2343.00,0.0162
2342.00,0.0162
2341.00,0.0163
2340.00,0.0164
2339.00,0.0166
2338.00,0.0167
2337.00,0.0168
2336.00,0.0168
2335.00,0.0168
2334.00,0.0167
2333.00,0.0166
2332.00,0.0165
2331.00,0.0165
2330.00,0.0166
2329.00,0.0168
2328.00,0.0170
2327.00,0.0175
2326.00,0.0180
2325.00,0.0184
2324.00,0.0187
2323.00,0.0187
2322.00,0.0185
2321.00,0.0182
2320.00,0.0181
2319.00,0.0179
2318.00,0.0179
2317.00,0.0178
2316.00,0.0177
2315.00,0.0177
2314.00,0.0177
2313.00,0.0176
2312.00,0.0176
2311.00,0.0175
2310.00,0.0174
2309.00,0.0173
2308.00,0.0173
2307.00,0.0172
2306.00,0.0172
2305.00,0.0172
2304.00,0.0172
2303.00,0.0172
2302.00,0.0173
2301.00,0.0173
2300.00,0.0174
2299.00,0.0175
2298.00,0.0175
2297.00,0.0176
2296.00,0.0177
2295.00,0.0178
2294.00,0.0179
2293.00,0.0180
2292.00,0.0180
2291.00,0.0181
2290.00,0.0182
2289.00,0.0183
2288.00,0.0183
2287.00,0.0184
2286.00,0.0184
2285.00,0.0184
2284.00,0.0184
2283.00,0.0182
2282.00,0.0181
2281.00,0.0179
2280.00,0.0178
2279.00,0.0177
2278.00,0.0176
2277.00,0.0176
2276.00,0.0175
2275.00,0.0175
2274.00,0.0176
2273.00,0.0176
2272.00,0.0175
2271.00,0.0175
2270.00,0.0174
2269.00,0.0174
2268.00,0.0174
2267.00,0.0174
2266.00,0.0173
2265.00,0.0171
2264.00,0.0169
2263.00,0.0168
2262.00,0.0168
2261.00,0.0169
2260.00,0.0171
2259.00,0.0171
2258.00,0.0170
2257.00,0.0169
2256.00,0.0168
2255.00,0.0168
2254.00,0.0167
2253.00,0.0167
2252.00,0.0167
2251.00,0.0167
2250.00,0.0168
2249.00,0.0169
2248.00,0.0169
2247.00,0.0169
2246.00,0.0168
2245.00,0.0167
2244.00,0.0167
2243.00,0.0168
2242.00,0.0169
2241.00,0.0170
2240.00,0.0169
2239.00,0.0169
2238.00,0.0169
2237.00,0.0169
2236.00,0.0170
2235.00,0.0170
2234.00,0.0171
2233.00,0.0170
2232.00,0.0169
2231.00,0.0169
2230.00,0.0169
2229.00,0.0170
2228.00,0.0170
2227.00,0.0168
2226.00,0.0166
2225.00,0.0164
2224.00,0.0164
2223.00,0.0164
2222.00,0.0165
2221.00,0.0166
2220.00,0.0165
2219.00,0.0165
2218.00,0.0164
2217.00,0.0164
2216.00,0.0164
2215.00,0.0165
2214.00,0.0166
2213.00,0.0167
2212.00,0.0168
2211.00,0.0168
2210.00,0.0168
2209.00,0.0167
2208.00,0.0167
2207.00,0.0166
2206.00,0.0165
2205.00,0.0165
2204.00,0.0165
2203.00,0.0165
2202.00,0.0165
2201.00,0.0166
2200.00,0.0166
2199.00,0.0168
2198.00,0.0169
2197.00,0.0170
2196.00,0.0170
2195.00,0.0169
2194.00,0.0167
2193.00,0.0165
2192.00,0.0164
2191.00,0.0165
2190.00,0.0167
2189.00,0.0168
2188.00,0.0169
2187.00,0.0168
2186.00,0.0167
2185.00,0.0166
2184.00,0.0166
2183.00,0.0164
2182.00,0.0159
2181.00,0.0155
2180.00,0.0152
2179.00,0.0151
2178.00,0.0152
2177.00,0.0153
2176.00,0.0152
2175.00,0.0151
2174.00,0.0151
2173.00,0.0152
2172.00,0.0156
2171.00,0.0160
2170.00,0.0163
2169.00,0.0164
2168.00,0.0165
2167.00,0.0164
2166.00,0.0165
2165.00,0.0166
2164.00,0.0166
2163.00,0.0166
2162.00,0.0164
2161.00,0.0160
2160.00,0.0149
2159.00,0.0133
2158.00,0.0117
2157.00,0.0105
2156.00,0.0100
2155.00,0.0100
2154.00,0.0103
2153.00,0.0109
2152.00,0.0117
2151.00,0.0123
2150.00,0.0126
2149.00,0.0126
2148.00,0.0125
2147.00,0.0123
2146.00,0.0122
2145.00,0.0122
2144.00,0.0124
2143.00,0.0127
2142.00,0.0129
2141.00,0.0131
2140.00,0.0132
2139.00,0.0132
2138.00,0.0132
2137.00,0.0132
2136.00,0.0133
2135.00,0.0132
2134.00,0.0131
2133.00,0.0130
2132.00,0.0130
2131.00,0.0131
2130.00,0.0134
2129.00,0.0138
2128.00,0.0141
2127.00,0.0144
2126.00,0.0145
2125.00,0.0146
2124.00,0.0146
2123.00,0.0146
2122.00,0.0147
2121.00,0.0148
2120.00,0.0150
2119.00,0.0153
2118.00,0.0156
2117.00,0.0158
2116.00,0.0159
2115.00,0.0160
2114.00,0.0160
2113.00,0.0160
2112.00,0.0160
2111.00,0.0160
2110.00,0.0160
2109.00,0.0160
2108.00,0.0161
2107.00,0.0161
2106.00,0.0161
2105.00,0.0159
2104.00,0.0158
2103.00,0.0157
2102.00,0.0156
2101.00,0.0156
2100.00,0.0157
2099.00,0.0158
2098.00,0.0158
2097.00,0.0156
2096.00,0.0154
2095.00,0.0152
2094.00,0.0152
2093.00,0.0152
2092.00,0.0153
2091.00,0.0154
2090.00,0.0154
2089.00,0.0155
2088.00,0.0156
2087.00,0.0157
2086.00,0.0158
2085.00,0.0158
2084.00,0.0158
2083.00,0.0158
2082.00,0.0158
2081.00,0.0158
2080.00,0.0158
2079.00,0.0157
2078.00,0.0156
2077.00,0.0155
2076.00,0.0154
2075.00,0.0153
2074.00,0.0152
2073.00,0.0149
2072.00,0.0148
2071.00,0.0146
2070.00,0.0146
2069.00,0.0145
2068.00,0.0146
2067.00,0.0146
2066.00,0.0147
2065.00,0.0148
2064.00,0.0147
2063.00,0.0147
2062.00,0.0146
2061.00,0.0145
2060.00,0.0145
2059.00,0.0146
2058.00,0.0148
2057.00,0.0149
2056.00,0.0150
2055.00,0.0149
2054.00,0.0149
2053.00,0.0151
2052.00,0.0154
2051.00,0.0156
2050.00,0.0156
2049.00,0.0153
2048.00,0.0151
2047.00,0.0149
2046.00,0.0148
2045.00,0.0148
2044.00,0.0146
2043.00,0.0145
2042.00,0.0143
2041.00,0.0142
2040.00,0.0142
2039.00,0.0143
2038.00,0.0144
2037.00,0.0144
2036.00,0.0143
2035.00,0.0142
2034.00,0.0141
2033.00,0.0138
2032.00,0.0135
2031.00,0.0132
2030.00,0.0128
2029.00,0.0124
2028.00,0.0121
2027.00,0.0123
2026.00,0.0127
2025.00,0.0132
2024.00,0.0135
2023.00,0.0135
2022.00,0.0134
2021.00,0.0134
2020.00,0.0133
2019.00,0.0133
2018.00,0.0132
2017.00,0.0131
2016.00,0.0130
2015.00,0.0131
2014.00,0.0132
2013.00,0.0133
2012.00,0.0132
2011.00,0.0130
2010.00,0.0128
2009.00,0.0128
2008.00,0.0128
2007.00,0.0127
2006.00,0.0124
2005.00,0.0123
2004.00,0.0126
2003.00,0.0130
2002.00,0.0134
2001.00,0.0137
2000.00,0.0138
1999.00,0.0139
1998.00,0.0139
1997.00,0.0138
1996.00,0.0138
1995.00,0.0139
1994.00,0.0141
1993.00,0.0144
1992.00,0.0147
1991.00,0.0147
1990.00,0.0145
1989.00,0.0143
1988.00,0.0142
1987.00,0.0141
1986.00,0.0141
1985.00,0.0142
1984.00,0.0147
1983.00,0.0152
1982.00,0.0158
1981.00,0.0161
1980.00,0.0160
1979.00,0.0153
1978.00,0.0143
1977.00,0.0134
1976.00,0.0129
1975.00,0.0126
1974.00,0.0124
1973.00,0.0122
1972.00,0.0122
1971.00,0.0124
1970.00,0.0125
1969.00,0.0127
1968.00,0.0128
1967.00,0.0128
1966.00,0.0128
1965.00,0.0128
1964.00,0.0128
1963.00,0.0128
1962.00,0.0127
1961.00,0.0124
1960.00,0.0122
1959.00,0.0122
1958.00,0.0123
1957.00,0.0125
1956.00,0.0127
1955.00,0.0129
1954.00,0.0130
1953.00,0.0130
1952.00,0.0131
1951.00,0.0133
1950.00,0.0135
1949.00,0.0136
1948.00,0.0136
1947.00,0.0135
1946.00,0.0134
1945.00,0.0133
1944.00,0.0132
1943.00,0.0132
1942.00,0.0131
1941.00,0.0131
1940.00,0.0133
1939.00,0.0134
1938.00,0.0134
1937.00,0.0134
1936.00,0.0133
1935.00,0.0134
1934.00,0.0136
1933.00,0.0137
1932.00,0.0138
1931.00,0.0137
1930.00,0.0136
1929.00,0.0135
1928.00,0.0134
1927.00,0.0134
1926.00,0.0135
1925.00,0.0136
1924.00,0.0137
1923.00,0.0139
1922.00,0.0140
1921.00,0.0141
1920.00,0.0141
1919.00,0.0140
1918.00,0.0139
1917.00,0.0137
1916.00,0.0138
1915.00,0.0139
1914.00,0.0140
1913.00,0.0140
1912.00,0.0141
1911.00,0.0141
1910.00,0.0141
1909.00,0.0141
1908.00,0.0141
1907.00,0.0140
1906.00,0.0139
1905.00,0.0139
1904.00,0.0139
1903.00,0.0139
1902.00,0.0138
1901.00,0.0138
1900.00,0.0138
1899.00,0.0138
1898.00,0.0138
1897.00,0.0138
1896.00,0.0137
1895.00,0.0136
1894.00,0.0136
1893.00,0.0137
1892.00,0.0138
1891.00,0.0139
1890.00,0.0139
1889.00,0.0140
1888.00,0.0139
1887.00,0.0138
1886.00,0.0138
1885.00,0.0137
1884.00,0.0136
1883.00,0.0136
1882.00,0.0136
1881.00,0.0136
1880.00,0.0137
1879.00,0.0136
1878.00,0.0136
1877.00,0.0135
1876.00,0.0135
1875.00,0.0135
1874.00,0.0134
1873.00,0.0134
1872.00,0.0135
1871.00,0.0136
1870.00,0.0136
1869.00,0.0135
1868.00,0.0135
1867.00,0.0135
1866.00,0.0135
1865.00,0.0136
1864.00,0.0137
1863.00,0.0137
1862.00,0.0136
1861.00,0.0136
1860.00,0.0136
1859.00,0.0136
1858.00,0.0136
1857.00,0.0136
1856.00,0.0137
1855.00,0.0137
1854.00,0.0137
1853.00,0.0137
1852.00,0.0136
1851.00,0.0135
1850.00,0.0135
1849.00,0.0134
1848.00,0.0135
1847.00,0.0136
1846.00,0.0136
1845.00,0.0137
1844.00,0.0137
1843.00,0.0137
1842.00,0.0137
1841.00,0.0136
1840.00,0.0136
1839.00,0.0136
1838.00,0.0135
1837.00,0.0134
1836.00,0.0134
1835.00,0.0134
1834.00,0.0135
1833.00,0.0136
1832.00,0.0137
1831.00,0.0138
1830.00,0.0138
1829.00,0.0138
1828.00,0.0138
1827.00,0.0138
1826.00,0.0139
1825.00,0.0139
1824.00,0.0139
1823.00,0.0139
1822.00,0.0138
1821.00,0.0138
1820.00,0.0137
1819.00,0.0135
1818.00,0.0134
1817.00,0.0133
1816.00,0.0134
1815.00,0.0135
1814.00,0.0136
1813.00,0.0137
1812.00,0.0138
1811.00,0.0138
1810.00,0.0139
1809.00,0.0139
1808.00,0.0140
1807.00,0.0140
1806.00,0.0140
1805.00,0.0140
1804.00,0.0140
1803.00,0.0140
1802.00,0.0140
1801.00,0.0140
1800.00,0.0140
1799.00,0.0140
1798.00,0.0140
1797.00,0.0141
1796.00,0.0141
1795.00,0.0141
1794.00,0.0142
1793.00,0.0142
1792.00,0.0143
1791.00,0.0143
1790.00,0.0143
1789.00,0.0143
1788.00,0.0143
1787.00,0.0143
1786.00,0.0142
1785.00,0.0142
1784.00,0.0142
1783.00,0.0142
1782.00,0.0142
1781.00,0.0142
1780.00,0.0142
1779.00,0.0142
1778.00,0.0141
1777.00,0.0141
1776.00,0.0142
1775.00,0.0143
1774.00,0.0143
1773.00,0.0144
1772.00,0.0144
1771.00,0.0144
1770.00,0.0145
1769.00,0.0145
1768.00,0.0145
1767.00,0.0145
1766.00,0.0144
1765.00,0.0144
1764.00,0.0144
1763.00,0.0144
1762.00,0.0144
1761.00,0.0144
1760.00,0.0144
1759.00,0.0144
1758.00,0.0145
1757.00,0.0145
1756.00,0.0145
1755.00,0.0145
1754.00,0.0146
1753.00,0.0146
1752.00,0.0146
1751.00,0.0146
1750.00,0.0146
1749.00,0.0146
1748.00,0.0146
1747.00,0.0146
1746.00,0.0146
1745.00,0.0146
1744.00,0.0147
1743.00,0.0147
1742.00,0.0147
1741.00,0.0147
1740.00,0.0147
1739.00,0.0146
1738.00,0.0146
1737.00,0.0147
1736.00,0.0148
1735.00,0.0148
1734.00,0.0147
1733.00,0.0148
1732.00,0.0149
1731.00,0.0150
1730.00,0.0152
1729.00,0.0152
1728.00,0.0152
1727.00,0.0151
1726.00,0.0151
1725.00,0.0151
1724.00,0.0151
1723.00,0.0152
1722.00,0.0153
1721.00,0.0155
1720.00,0.0157
1719.00,0.0159
1718.00,0.0159
1717.00,0.0159
1716.00,0.0160
1715.00,0.0162
1714.00,0.0163
1713.00,0.0163
1712.00,0.0164
1711.00,0.0164
1710.00,0.0165
1709.00,0.0166
1708.00,0.0168
1707.00,0.0170
1706.00,0.0172
1705.00,0.0174
1704.00,0.0176
1703.00,0.0179
1702.00,0.0181
1701.00,0.0184
1700.00,0.0187
1699.00,0.0189
1698.00,0.0190
1697.00,0.0192
1696.00,0.0194
1695.00,0.0198
1694.00,0.0202
1693.00,0.0205
1692.00,0.0209
1691.00,0.0212
1690.00,0.0216
1689.00,0.0220
1688.00,0.0223
1687.00,0.0226
1686.00,0.0229
1685.00,0.0234
1684.00,0.0242
1683.00,0.0250
1682.00,0.0255
1681.00,0.0259
1680.00,0.0263
1679.00,0.0266
1678.00,0.0270
1677.00,0.0274
1676.00,0.0279
1675.00,0.0286
1674.00,0.0293
1673.00,0.0298
1672.00,0.0302
1671.00,0.0307
1670.00,0.0314
1669.00,0.0322
1668.00,0.0330
1667.00,0.0335
1666.00,0.0339
1665.00,0.0342
1664.00,0.0347
1663.00,0.0353
1662.00,0.0361
1661.00,0.0368
1660.00,0.0374
1659.00,0.0379
1658.00,0.0383
1657.00,0.0386
1656.00,0.0388
1655.00,0.0389
1654.00,0.0394
1653.00,0.0409
1652.00,0.0423
1651.00,0.0430
1650.00,0.0431
1649.00,0.0431
1648.00,0.0432
1647.00,0.0437
1646.00,0.0444
1645.00,0.0450
1644.00,0.0453
1643.00,0.0454
1642.00,0.0454
1641.00,0.0454
1640.00,0.0455
1639.00,0.0454
1638.00,0.0454
1637.00,0.0453
1636.00,0.0456
1635.00,0.0462
1634.00,0.0465
1633.00,0.0465
1632.00,0.0463
1631.00,0.0460
1630.00,0.0457
1629.00,0.0456
1628.00,0.0455
1627.00,0.0454
1626.00,0.0453
1625.00,0.0451
1624.00,0.0449
1623.00,0.0448
1622.00,0.0447
1621.00,0.0445
1620.00,0.0440
1619.00,0.0434
1618.00,0.0427
1617.00,0.0420
1616.00,0.0416
1615.00,0.0412
1614.00,0.0408
1613.00,0.0402
1612.00,0.0395
1611.00,0.0389
1610.00,0.0383
1609.00,0.0378
1608.00,0.0373
1607.00,0.0368
1606.00,0.0362
1605.00,0.0357
1604.00,0.0352
1603.00,0.0347
1602.00,0.0343
1601.00,0.0339
1600.00,0.0335
1599.00,0.0331
1598.00,0.0327
1597.00,0.0323
1596.00,0.0320
1595.00,0.0316
1594.00,0.0312
1593.00,0.0308
1592.00,0.0305
1591.00,0.0302
1590.00,0.0299
1589.00,0.0296
1588.00,0.0293
1587.00,0.0289
1586.00,0.0286
1585.00,0.0283
1584.00,0.0280
1583.00,0.0278
1582.00,0.0275
1581.00,0.0273
1580.00,0.0270
1579.00,0.0267
1578.00,0.0264
1577.00,0.0260
1576.00,0.0258
1575.00,0.0256
1574.00,0.0255
1573.00,0.0254
1572.00,0.0253
1571.00,0.0251
1570.00,0.0249
1569.00,0.0247
1568.00,0.0246
1567.00,0.0245
1566.00,0.0243
1565.00,0.0241
1564.00,0.0239
1563.00,0.0238
1562.00,0.0237
1561.00,0.0236
1560.00,0.0234
1559.00,0.0232
1558.00,0.0232
1557.00,0.0231
1556.00,0.0230
1555.00,0.0227
1554.00,0.0225
1553.00,0.0223
1552.00,0.0222
1551.00,0.0221
1550.00,0.0220
1549.00,0.0219
1548.00,0.0218
1547.00,0.0217
1546.00,0.0216
1545.00,0.0216
1544.00,0.0215
1543.00,0.0213
1542.00,0.0212
1541.00,0.0210
1540.00,0.0207
1539.00,0.0206
1538.00,0.0205
1537.00,0.0204
1536.00,0.0204
1535.00,0.0203
1534.00,0.0202
1533.00,0.0201
1532.00,0.0200
1531.00,0.0200
1530.00,0.0199
1529.00,0.0198
1528.00,0.0197
1527.00,0.0197
1526.00,0.0197
1525.00,0.0196
1524.00,0.0196
1523.00,0.0196
1522.00,0.0196
1521.00,0.0195
1520.00,0.0195
1519.00,0.0195
1518.00,0.0194
1517.00,0.0193
1516.00,0.0192
1515.00,0.0191
1514.00,0.0190
1513.00,0.0190
1512.00,0.0190
1511.00,0.0191
1510.00,0.0192
1509.00,0.0192
1508.00,0.0191
1507.00,0.0189
1506.00,0.0187
1505.00,0.0186
1504.00,0.0185
1503.00,0.0185
1502.00,0.0185
1501.00,0.0185
1500.00,0.0185
1499.00,0.0186
1498.00,0.0186
1497.00,0.0187
1496.00,0.0187
1495.00,0.0188
1494.00,0.0188
1493.00,0.0190
1492.00,0.0192
1491.00,0.0194
1490.00,0.0197
1489.00,0.0200
1488.00,0.0203
1487.00,0.0205
1486.00,0.0207
1485.00,0.0209
1484.00,0.0212
1483.00,0.0214
1482.00,0.0217
1481.00,0.0221
1480.00,0.0224
1479.00,0.0227
1478.00,0.0230
1477.00,0.0233
1476.00,0.0237
1475.00,0.0240
1474.00,0.0242
1473.00,0.0244
1472.00,0.0246
1471.00,0.0247
1470.00,0.0248
1469.00,0.0248
1468.00,0.0248
1467.00,0.0249
1466.00,0.0249
1465.00,0.0250
1464.00,0.0251
1463.00,0.0252
1462.00,0.0253
1461.00,0.0254
1460.00,0.0255
1459.00,0.0256
1458.00,0.0258
1457.00,0.0261
1456.00,0.0264
1455.00,0.0265
1454.00,0.0266
1453.00,0.0266
1452.00,0.0267
1451.00,0.0268
1450.00,0.0269
1449.00,0.0270
1448.00,0.0272
1447.00,0.0274
1446.00,0.0275
1445.00,0.0277
1444.00,0.0278
1443.00,0.0279
1442.00,0.0280
1441.00,0.0281
1440.00,0.0283
1439.00,0.0284
1438.00,0.0287
1437.00,0.0290
1436.00,0.0293
1435.00,0.0295
1434.00,0.0295
1433.00,0.0295
1432.00,0.0296
1431.00,0.0297
1430.00,0.0298
1429.00,0.0300
1428.00,0.0301
1427.00,0.0301
1426.00,0.0301
1425.00,0.0302
1424.00,0.0302
1423.00,0.0302
1422.00,0.0302
1421.00,0.0302
1420.00,0.0303
1419.00,0.0303
1418.00,0.0304
1417.00,0.0304
1416.00,0.0303
1415.00,0.0302
1414.00,0.0300
1413.00,0.0299
1412.00,0.0298
1411.00,0.0297
1410.00,0.0297
1409.00,0.0296
1408.00,0.0295
1407.00,0.0294
1406.00,0.0294
1405.00,0.0294
1404.00,0.0294
1403.00,0.0293
1402.00,0.0293
1401.00,0.0292
1400.00,0.0292
1399.00,0.0292
1398.00,0.0293
1397.00,0.0293
1396.00,0.0294
1395.00,0.0295
1394.00,0.0296
1393.00,0.0297
1392.00,0.0298
1391.00,0.0300
1390.00,0.0303
1389.00,0.0307
1388.00,0.0312
1387.00,0.0319
1386.00,0.0327
1385.00,0.0333
1384.00,0.0339
1383.00,0.0345
1382.00,0.0351
1381.00,0.0358
1380.00,0.0364
1379.00,0.0369
1378.00,0.0373
1377.00,0.0377
1376.00,0.0379
1375.00,0.0381
1374.00,0.0382
1373.00,0.0383
1372.00,0.0382
1371.00,0.0380
1370.00,0.0377
1369.00,0.0374
1368.00,0.0371
1367.00,0.0369
1366.00,0.0366
1365.00,0.0364
1364.00,0.0363
1363.00,0.0363
1362.00,0.0363
1361.00,0.0363
1360.00,0.0362
1359.00,0.0361
1358.00,0.0360
1357.00,0.0360
1356.00,0.0360
1355.00,0.0359
1354.00,0.0358
1353.00,0.0357
1352.00,0.0355
1351.00,0.0352
1350.00,0.0349
1349.00,0.0346
1348.00,0.0342
1347.00,0.0339
1346.00,0.0335
1345.00,0.0331
1344.00,0.0327
1343.00,0.0324
1342.00,0.0322
1341.00,0.0320
1340.00,0.0319
1339.00,0.0317
1338.00,0.0316
1337.00,0.0315
1336.00,0.0314
1335.00,0.0312
1334.00,0.0311
1333.00,0.0309
1332.00,0.0308
1331.00,0.0307
1330.00,0.0306
1329.00,0.0306
1328.00,0.0305
1327.00,0.0304
1326.00,0.0303
1325.00,0.0302
1324.00,0.0301
1323.00,0.0300
1322.00,0.0298
1321.00,0.0297
1320.00,0.0295
1319.00,0.0294
1318.00,0.0292
1317.00,0.0292
1316.00,0.0291
1315.00,0.0291
1314.00,0.0291
1313.00,0.0291
1312.00,0.0292
1311.00,0.0293
1310.00,0.0293
1309.00,0.0295
1308.00,0.0296
1307.00,0.0298
1306.00,0.0301
1305.00,0.0304
1304.00,0.0307
1303.00,0.0310
1302.00,0.0314
1301.00,0.0318
1300.00,0.0323
1299.00,0.0328
1298.00,0.0335
1297.00,0.0342
1296.00,0.0350
1295.00,0.0359
1294.00,0.0368
1293.00,0.0378
1292.00,0.0389
1291.00,0.0401
1290.00,0.0414
1289.00,0.0426
1288.00,0.0439
1287.00,0.0453
1286.00,0.0466
1285.00,0.0481
1284.00,0.0497
1283.00,0.0513
1282.00,0.0530
1281.00,0.0547
1280.00,0.0565
1279.00,0.0584
1278.00,0.0603
1277.00,0.0622
1276.00,0.0642
1275.00,0.0662
1274.00,0.0682
1273.00,0.0703
1272.00,0.0725
1271.00,0.0746
1270.00,0.0767
1269.00,0.0787
1268.00,0.0807
1267.00,0.0826
1266.00,0.0844
1265.00,0.0862
1264.00,0.0879
1263.00,0.0896
1262.00,0.0912
1261.00,0.0927
1260.00,0.0942
1259.00,0.0955
1258.00,0.0968
1257.00,0.0979
1256.00,0.0989
1255.00,0.0999
1254.00,0.1009
1253.00,0.1018
1252.00,0.1027
1251.00,0.1034
1250.00,0.1041
1249.00,0.1047
1248.00,0.1053
1247.00,0.1058
1246.00,0.1062
1245.00,0.1065
1244.00,0.1070
1243.00,0.1075
1242.00,0.1079
1241.00,0.1084
1240.00,0.1090
1239.00,0.1097
1238.00,0.1104
1237.00,0.1112
1236.00,0.1121
1235.00,0.1130
1234.00,0.1139
1233.00,0.1148
1232.00,0.1157
1231.00,0.1166
1230.00,0.1174
1229.00,0.1181
1228.00,0.1188
1227.00,0.1194
1226.00,0.1199
1225.00,0.1203
1224.00,0.1206
1223.00,0.1208
1222.00,0.1208
1221.00,0.1207
1220.00,0.1206
1219.00,0.1203
1218.00,0.1198
1217.00,0.1193
1216.00,0.1187
1215.00,0.1180
1214.00,0.1171
1213.00,0.1162
1212.00,0.1152
1211.00,0.1141
1210.00,0.1129
1209.00,0.1116
1208.00,0.1102
1207.00,0.1088
1206.00,0.1072
1205.00,0.1057
1204.00,0.1042
1203.00,0.1027
1202.00,0.1013
1201.00,0.1001
1200.00,0.0991
1199.00,0.0982
1198.00,0.0976
1197.00,0.0973
1196.00,0.0972
1195.00,0.0972
1194.00,0.0973
1193.00,0.0975
1192.00,0.0975
1191.00,0.0973
1190.00,0.0969
1189.00,0.0962
1188.00,0.0951
1187.00,0.0939
1186.00,0.0924
1185.00,0.0910
1184.00,0.0895
1183.00,0.0881
1182.00,0.0869
1181.00,0.0858
1180.00,0.0850
1179.00,0.0843
1178.00,0.0838
1177.00,0.0835
1176.00,0.0834
1175.00,0.0836
1174.00,0.0840
1173.00,0.0848
1172.00,0.0859
1171.00,0.0872
1170.00,0.0887
1169.00,0.0903
1168.00,0.0920
1167.00,0.0938
1166.00,0.0958
1165.00,0.0978
1164.00,0.0999
1163.00,0.1018
1162.00,0.1037
1161.00,0.1053
1160.00,0.1068
1159.00,0.1080
1158.00,0.1090
1157.00,0.1098
1156.00,0.1104
1155.00,0.1107
1154.00,0.1107
1153.00,0.1104
1152.00,0.1099
1151.00,0.1091
1150.00,0.1081
1149.00,0.1070
1148.00,0.1057
1147.00,0.1043
1146.00,0.1029
1145.00,0.1015
1144.00,0.1001
1143.00,0.0990
1142.00,0.0980
1141.00,0.0973
1140.00,0.0970
1139.00,0.0971
1138.00,0.0976
1137.00,0.0984
1136.00,0.0997
1135.00,0.1011
1134.00,0.1028
1133.00,0.1046
1132.00,0.1065
1131.00,0.1083
1130.00,0.1099
1129.00,0.1113
1128.00,0.1123
1127.00,0.1128
1126.00,0.1130
1125.00,0.1128
1124.00,0.1123
1123.00,0.1116
1122.00,0.1106
1121.00,0.1095
1120.00,0.1084
1119.00,0.1071
1118.00,0.1057
1117.00,0.1044
1116.00,0.1030
1115.00,0.1017
1114.00,0.1005
1113.00,0.0993
1112.00,0.0982
1111.00,0.0972
1110.00,0.0961
1109.00,0.0951
1108.00,0.0942
1107.00,0.0936
1106.00,0.0933
1105.00,0.0934
1104.00,0.0940
1103.00,0.0949
1102.00,0.0961
1101.00,0.0978
1100.00,0.0998
1099.00,0.1020
1098.00,0.1044
1097.00,0.1069
1096.00,0.1095
1095.00,0.1122
1094.00,0.1149
1093.00,0.1176
1092.00,0.1204
1091.00,0.1232
1090.00,0.1260
1089.00,0.1290
1088.00,0.1322
1087.00,0.1354
1086.00,0.1387
1085.00,0.1421
1084.00,0.1456
1083.00,0.1493
1082.00,0.1531
1081.00,0.1570
1080.00,0.1611
1079.00,0.1653
1078.00,0.1694
1077.00,0.1735
1076.00,0.1775
1075.00,0.1813
1074.00,0.1849
1073.00,0.1884
1072.00,0.1918
1071.00,0.1950
1070.00,0.1980
1069.00,0.2008
1068.00,0.2034
1067.00,0.2055
1066.00,0.2070
1065.00,0.2080
1064.00,0.2084
1063.00,0.2082
1062.00,0.2075
1061.00,0.2064
1060.00,0.2053
1059.00,0.2043
1058.00,0.2034
1057.00,0.2029
1056.00,0.2027
1055.00,0.2028
1054.00,0.2033
1053.00,0.2041
1052.00,0.2051
1051.00,0.2061
1050.00,0.2070
1049.00,0.2079
1048.00,0.2089
1047.00,0.2100
1046.00,0.2112
1045.00,0.2127
1044.00,0.2145
1043.00,0.2167
1042.00,0.2189
1041.00,0.2212
1040.00,0.2232
1039.00,0.2249
1038.00,0.2261
1037.00,0.2269
1036.00,0.2269
1035.00,0.2263
1034.00,0.2250
1033.00,0.2231
1032.00,0.2209
1031.00,0.2184
1030.00,0.2157
1029.00,0.2129
1028.00,0.2099
1027.00,0.2066
1026.00,0.2031
1025.00,0.1995
1024.00,0.1956
1023.00,0.1913
1022.00,0.1866
1021.00,0.1818
1020.00,0.1769
1019.00,0.1720
1018.00,0.1672
1017.00,0.1626
1016.00,0.1583
1015.00,0.1545
1014.00,0.1511
1013.00,0.1483
1012.00,0.1460
1011.00,0.1442
1010.00,0.1429
1009.00,0.1422
1008.00,0.1418
1007.00,0.1415
1006.00,0.1411
1005.00,0.1405
1004.00,0.1395
1003.00,0.1379
1002.00,0.1357
1001.00,0.1329
1000.00,0.1297
999.00,0.1261
998.00,0.1225
997.00,0.1191
996.00,0.1161
995.00,0.1136
994.00,0.1117
993.00,0.1104
992.00,0.1095
991.00,0.1090
990.00,0.1086
989.00,0.1082
988.00,0.1075
987.00,0.1066
986.00,0.1056
985.00,0.1046
984.00,0.1038
983.00,0.1030
982.00,0.1024
981.00,0.1021
980.00,0.1021
979.00,0.1024
978.00,0.1028
977.00,0.1032
976.00,0.1038
975.00,0.1044
974.00,0.1051
973.00,0.1057
972.00,0.1063
971.00,0.1065
970.00,0.1064
969.00,0.1059
968.00,0.1048
967.00,0.1032
966.00,0.1010
965.00,0.0983
964.00,0.0954
963.00,0.0922
962.00,0.0891
961.00,0.0861
960.00,0.0834
959.00,0.0811
958.00,0.0793
957.00,0.0778
956.00,0.0767
955.00,0.0761
954.00,0.0758
953.00,0.0759
952.00,0.0764
951.00,0.0772
950.00,0.0783
949.00,0.0797
948.00,0.0815
947.00,0.0838
946.00,0.0864
945.00,0.0895
944.00,0.0930
943.00,0.0969
942.00,0.1012
941.00,0.1060
940.00,0.1113
939.00,0.1170
938.00,0.1230
937.00,0.1291
936.00,0.1351
935.00,0.1410
934.00,0.1466
933.00,0.1518
932.00,0.1564
931.00,0.1604
930.00,0.1638
929.00,0.1666
928.00,0.1689
927.00,0.1705
926.00,0.1714
925.00,0.1716
924.00,0.1713
923.00,0.1704
922.00,0.1690
921.00,0.1673
920.00,0.1652
919.00,0.1630
918.00,0.1605
917.00,0.1578
916.00,0.1550
915.00,0.1519
914.00,0.1487
913.00,0.1453
912.00,0.1418
911.00,0.1382
910.00,0.1345
909.00,0.1309
908.00,0.1275
907.00,0.1242
906.00,0.1213
905.00,0.1187
904.00,0.1165
903.00,0.1148
902.00,0.1135
901.00,0.1127
900.00,0.1123
899.00,0.1123
898.00,0.1126
897.00,0.1131
896.00,0.1138
895.00,0.1145
894.00,0.1152
893.00,0.1159
892.00,0.1164
891.00,0.1167
890.00,0.1167
889.00,0.1163
888.00,0.1155
887.00,0.1141
886.00,0.1122
885.00,0.1099
884.00,0.1072
883.00,0.1041
882.00,0.1009
881.00,0.0978
880.00,0.0952
879.00,0.0931
878.00,0.0917
877.00,0.0908
876.00,0.0903
875.00,0.0902
874.00,0.0901
873.00,0.0902
872.00,0.0902
871.00,0.0901
870.00,0.0898
869.00,0.0897
868.00,0.0896
867.00,0.0897
866.00,0.0900
865.00,0.0905
864.00,0.0913
863.00,0.0923
862.00,0.0936
861.00,0.0951
860.00,0.0970
859.00,0.0992
858.00,0.1017
857.00,0.1047
856.00,0.1083
855.00,0.1126
854.00,0.1173
853.00,0.1225
852.00,0.1277
851.00,0.1329
850.00,0.1378
849.00,0.1424
848.00,0.1466
847.00,0.1501
846.00,0.1528
845.00,0.1546
844.00,0.1555
843.00,0.1553
842.00,0.1541
841.00,0.1519
840.00,0.1490
839.00,0.1455
838.00,0.1414
837.00,0.1369
836.00,0.1321
835.00,0.1271
834.00,0.1221
833.00,0.1174
832.00,0.1129
831.00,0.1088
830.00,0.1049
829.00,0.1014
828.00,0.0982
827.00,0.0954
826.00,0.0929
825.00,0.0907
824.00,0.0888
823.00,0.0870
822.00,0.0855
821.00,0.0841
820.00,0.0830
819.00,0.0820
818.00,0.0811
817.00,0.0803
816.00,0.0796
815.00,0.0790
814.00,0.0785
813.00,0.0782
812.00,0.0780
811.00,0.0780
810.00,0.0780
809.00,0.0780
808.00,0.0781
807.00,0.0781
806.00,0.0782
805.00,0.0783
804.00,0.0785
803.00,0.0786
802.00,0.0785
801.00,0.0783
800.00,0.0780
799.00,0.0777
798.00,0.0774
797.00,0.0770
796.00,0.0767
795.00,0.0763
794.00,0.0760
793.00,0.0755
792.00,0.0751
791.00,0.0747
790.00,0.0743
789.00,0.0741
788.00,0.0739
787.00,0.0739
786.00,0.0740
785.00,0.0742
784.00,0.0745
783.00,0.0751
782.00,0.0758
781.00,0.0768
780.00,0.0780
779.00,0.0795
778.00,0.0812
777.00,0.0831
776.00,0.0850
775.00,0.0868
774.00,0.0883
773.00,0.0893
772.00,0.0898
771.00,0.0897
770.00,0.0890
769.00,0.0879
768.00,0.0866
767.00,0.0852
766.00,0.0838
765.00,0.0826
764.00,0.0817
763.00,0.0809
762.00,0.0804
761.00,0.0801
760.00,0.0801
759.00,0.0803
758.00,0.0806
757.00,0.0813
756.00,0.0822
755.00,0.0833
754.00,0.0847
753.00,0.0864
752.00,0.0884
751.00,0.0908
750.00,0.0933
749.00,0.0960
748.00,0.0987
747.00,0.1012
746.00,0.1036
745.00,0.1059
744.00,0.1080
743.00,0.1100
742.00,0.1119
741.00,0.1137
740.00,0.1155
739.00,0.1174
738.00,0.1192
737.00,0.1211
736.00,0.1228
735.00,0.1242
734.00,0.1251
733.00,0.1257
732.00,0.1258
731.00,0.1255
730.00,0.1249
729.00,0.1240
728.00,0.1229
727.00,0.1218
726.00,0.1207
725.00,0.1199
724.00,0.1193
723.00,0.1187
722.00,0.1184
721.00,0.1182
720.00,0.1184
719.00,0.1188
718.00,0.1195
717.00,0.1205
716.00,0.1219
715.00,0.1236
714.00,0.1255
713.00,0.1276
712.00,0.1300
711.00,0.1326
710.00,0.1354
709.00,0.1382
708.00,0.1411
707.00,0.1439
706.00,0.1466
705.00,0.1492
704.00,0.1515
703.00,0.1535
702.00,0.1549
701.00,0.1559
700.00,0.1564
699.00,0.1564
698.00,0.1558
697.00,0.1549
696.00,0.1537
695.00,0.1520
694.00,0.1499
693.00,0.1476
692.00,0.1451
691.00,0.1427
690.00,0.1404
689.00,0.1381
688.00,0.1358
687.00,0.1337
686.00,0.1318
685.00,0.1303
684.00,0.1291
683.00,0.1282
682.00,0.1274
681.00,0.1269
680.00,0.1265
679.00,0.1263
678.00,0.1263
677.00,0.1264
676.00,0.1267
675.00,0.1269
674.00,0.1270
673.00,0.1270
672.00,0.1269
671.00,0.1267
670.00,0.1264
669.00,0.1265
668.00,0.1277
667.00,0.1290
666.00,0.1292
665.00,0.1287
664.00,0.1282
663.00,0.1279
662.00,0.1278
661.00,0.1277
660.00,0.1277
659.00,0.1279
658.00,0.1281
657.00,0.1283
656.00,0.1286
655.00,0.1289
654.00,0.1293
653.00,0.1297
652.00,0.1301
651.00,0.1304
650.00,0.1306
649.00,0.1308
648.00,0.1310
647.00,0.1313
646.00,0.1316
645.00,0.1319
644.00,0.1322
643.00,0.1325
642.00,0.1328
641.00,0.1331
640.00,0.1335
639.00,0.1340
638.00,0.1343
637.00,0.1346
636.00,0.1350
635.00,0.1353
634.00,0.1357
633.00,0.1360
632.00,0.1365
631.00,0.1373
630.00,0.1384
629.00,0.1399
628.00,0.1418
627.00,0.1440
626.00,0.1462
625.00,0.1484
624.00,0.1508
623.00,0.1531
622.00,0.1555
621.00,0.1578
620.00,0.1601
619.00,0.1624
618.00,0.1647
617.00,0.1669
616.00,0.1691
615.00,0.1711
614.00,0.1727
613.00,0.1740
612.00,0.1752
611.00,0.1764
610.00,0.1775
609.00,0.1786
608.00,0.1800
607.00,0.1812
606.00,0.1821
605.00,0.1827
604.00,0.1831
603.00,0.1832
602.00,0.1828
601.00,0.1821
600.00,0.1813
599.00,0.1805
598.00,0.1796
597.00,0.1788
596.00,0.1783
595.00,0.1779
594.00,0.1775
593.00,0.1771
592.00,0.1770
591.00,0.1770
590.00,0.1771
589.00,0.1775
588.00,0.1782
587.00,0.1791
586.00,0.1802
585.00,0.1814
584.00,0.1828
583.00,0.1841
582.00,0.1853
581.00,0.1866
580.00,0.1881
579.00,0.1895
578.00,0.1906
577.00,0.1914
576.00,0.1923
575.00,0.1930
574.00,0.1932
573.00,0.1929
572.00,0.1926
571.00,0.1921
570.00,0.1916
569.00,0.1911
568.00,0.1908
567.00,0.1903
566.00,0.1898
565.00,0.1894
564.00,0.1892
563.00,0.1892
562.00,0.1891
561.00,0.1891
560.00,0.1890
559.00,0.1887
558.00,0.1882
557.00,0.1877
556.00,0.1877
555.00,0.1879
554.00,0.1882
553.00,0.1886
552.00,0.1891
551.00,0.1896
550.00,0.1900
549.00,0.1903
548.00,0.1908
547.00,0.1914
546.00,0.1923
545.00,0.1935
544.00,0.1949
543.00,0.1960
542.00,0.1967
541.00,0.1974
540.00,0.1979
539.00,0.1980
538.00,0.1976
537.00,0.1971
536.00,0.1967
535.00,0.1961
534.00,0.1953
533.00,0.1944
532.00,0.1937
531.00,0.1931
530.00,0.1926
529.00,0.1923
528.00,0.1924
527.00,0.1929
526.00,0.1935
525.00,0.1942
524.00,0.1949
523.00,0.1954
522.00,0.1957
521.00,0.1963
520.00,0.1974
519.00,0.1986
518.00,0.1995
517.00,0.2001
516.00,0.2003
515.00,0.2001
514.00,0.1995
513.00,0.1988
512.00,0.1984
511.00,0.1982
510.00,0.1980
509.00,0.1978
508.00,0.1979
507.00,0.1980
506.00,0.1980
505.00,0.1977
504.00,0.1975
503.00,0.1973
502.00,0.1970
501.00,0.1968
500.00,0.1967
499.00,0.1965
498.00,0.1964
497.00,0.1967
496.00,0.1975
495.00,0.1985
494.00,0.1992
493.00,0.1998
492.00,0.2005
491.00,0.2011
490.00,0.2013
489.00,0.2014
488.00,0.2018
487.00,0.2023
486.00,0.2027
485.00,0.2031
484.00,0.2038
483.00,0.2048
482.00,0.2056
481.00,0.2062
480.00,0.2066
479.00,0.2069
478.00,0.2072
477.00,0.2073
476.00,0.2073
475.00,0.2069
474.00,0.2066
473.00,0.2067
472.00,0.2075
471.00,0.2081
470.00,0.2083
469.00,0.2085
468.00,0.2087
467.00,0.2084
466.00,0.2073
465.00,0.2064
464.00,0.2064
463.00,0.2068
462.00,0.2069
461.00,0.2070
460.00,0.2076
459.00,0.2086
458.00,0.2093
457.00,0.2097
456.00,0.2100
455.00,0.2100
454.00,0.2095
453.00,0.2093
452.00,0.2102
451.00,0.2116
450.00,0.2127
