Created as New Dataset,Sample 007 By Administrator Date Monday, June 09 2025
cm-1,A
4000.00,0.0065
3999.00,0.0065
3998.00,0.0065
3997.00,0.0065
3996.00,0.0065
3995.00,0.0065
3994.00,0.0065
3993.00,0.0065
3992.00,0.0065
3991.00,0.0065
3990.00,0.0065
3989.00,0.0065
3988.00,0.0065
3987.00,0.0065
3986.00,0.0065
3985.00,0.0065
3984.00,0.0065
3983.00,0.0065
3982.00,0.0065
3981.00,0.0065
3980.00,0.0065
3979.00,0.0065
3978.00,0.0066
3977.00,0.0066
3976.00,0.0066
3975.00,0.0066
3974.00,0.0066
3973.00,0.0066
3972.00,0.0066
3971.00,0.0065
3970.00,0.0065
3969.00,0.0065
3968.00,0.0065
3967.00,0.0065
3966.00,0.0065
3965.00,0.0065
3964.00,0.0066
3963.00,0.0066
3962.00,0.0066
3961.00,0.0066
3960.00,0.0067
3959.00,0.0067
3958.00,0.0067
3957.00,0.0067
3956.00,0.0067
3955.00,0.0067
3954.00,0.0067
3953.00,0.0067
3952.00,0.0068
3951.00,0.0068
3950.00,0.0068
3949.00,0.0068
3948.00,0.0068
3947.00,0.0068
3946.00,0.0069
3945.00,0.0069
3944.00,0.0069
3943.00,0.0068
3942.00,0.0067
3941.00,0.0066
3940.00,0.0066
3939.00,0.0066
3938.00,0.0067
3937.00,0.0067
3936.00,0.0067
3935.00,0.0068
3934.00,0.0069
3933.00,0.0069
3932.00,0.0069
3931.00,0.0068
3930.00,0.0068
3929.00,0.0068
3928.00,0.0068
3927.00,0.0068
3926.00,0.0068
3925.00,0.0067
3924.00,0.0066
3923.00,0.0067
3922.00,0.0067
3921.00,0.0068
3920.00,0.0069
3919.00,0.0070
3918.00,0.0070
3917.00,0.0069
3916.00,0.0069
3915.00,0.0068
3914.00,0.0067
3913.00,0.0066
3912.00,0.0065
3911.00,0.0064
3910.00,0.0064
3909.00,0.0065
3908.00,0.0065
3907.00,0.0066
3906.00,0.0068
3905.00,0.0069
3904.00,0.0071
3903.00,0.0073
3902.00,0.0075
3901.00,0.0076
3900.00,0.0076
3899.00,0.0075
3898.00,0.0073
3897.00,0.0071
3896.00,0.0070
3895.00,0.0070
3894.00,0.0069
3893.00,0.0068
3892.00,0.0067
3891.00,0.0067
3890.00,0.0067
3889.00,0.0068
3888.00,0.0069
3887.00,0.0071
3886.00,0.0071
3885.00,0.0070
3884.00,0.0070
3883.00,0.0071
3882.00,0.0072
3881.00,0.0072
3880.00,0.0071
3879.00,0.0070
3878.00,0.0070
3877.00,0.0071
3876.00,0.0072
3875.00,0.0072
3874.00,0.0071
3873.00,0.0071
3872.00,0.0071
3871.00,0.0073
3870.00,0.0073
3869.00,0.0072
3868.00,0.0072
3867.00,0.0073
3866.00,0.0074
3865.00,0.0074
3864.00,0.0073
3863.00,0.0072
3862.00,0.0071
3861.00,0.0071
3860.00,0.0071
3859.00,0.0070
3858.00,0.0068
3857.00,0.0065
3856.00,0.0063
3855.00,0.0064
3854.00,0.0067
3853.00,0.0069
3852.00,0.0071
3851.00,0.0073
3850.00,0.0074
3849.00,0.0074
3848.00,0.0073
3847.00,0.0071
3846.00,0.0071
3845.00,0.0070
3844.00,0.0070
3843.00,0.0071
3842.00,0.0071
3841.00,0.0072
3840.00,0.0073
3839.00,0.0074
3838.00,0.0074
3837.00,0.0074
3836.00,0.0074
3835.00,0.0074
3834.00,0.0073
3833.00,0.0073
3832.00,0.0073
3831.00,0.0072
3830.00,0.0072
3829.00,0.0071
3828.00,0.0071
3827.00,0.0071
3826.00,0.0070
3825.00,0.0069
3824.00,0.0069
3823.00,0.0071
3822.00,0.0074
3821.00,0.0074
3820.00,0.0073
3819.00,0.0073
3818.00,0.0074
3817.00,0.0075
3816.00,0.0074
3815.00,0.0072
3814.00,0.0069
3813.00,0.0068
3812.00,0.0068
3811.00,0.0067
3810.00,0.0066
3809.00,0.0066
3808.00,0.0066
3807.00,0.0067
3806.00,0.0068
3805.00,0.0068
3804.00,0.0070
3803.00,0.0073
3802.00,0.0074
3801.00,0.0074
3800.00,0.0074
3799.00,0.0074
3798.00,0.0074
3797.00,0.0074
3796.00,0.0072
3795.00,0.0069
3794.00,0.0068
3793.00,0.0067
3792.00,0.0066
3791.00,0.0065
3790.00,0.0064
3789.00,0.0064
3788.00,0.0064
3787.00,0.0065
3786.00,0.0066
3785.00,0.0066
3784.00,0.0065
3783.00,0.0065
3782.00,0.0066
3781.00,0.0067
3780.00,0.0067
3779.00,0.0067
3778.00,0.0066
3777.00,0.0066
3776.00,0.0066
3775.00,0.0067
3774.00,0.0067
3773.00,0.0066
3772.00,0.0067
3771.00,0.0068
3770.00,0.0068
3769.00,0.0069
3768.00,0.0070
3767.00,0.0071
3766.00,0.0072
3765.00,0.0071
3764.00,0.0071
3763.00,0.0071
3762.00,0.0072
3761.00,0.0074
3760.00,0.0074
3759.00,0.0074
3758.00,0.0075
3757.00,0.0076
3756.00,0.0076
3755.00,0.0077
3754.00,0.0078
3753.00,0.0080
3752.00,0.0081
3751.00,0.0082
3750.00,0.0083
3749.00,0.0085
3748.00,0.0085
3747.00,0.0085
3746.00,0.0086
3745.00,0.0086
3744.00,0.0085
3743.00,0.0084
3742.00,0.0084
3741.00,0.0084
3740.00,0.0085
3739.00,0.0086
3738.00,0.0088
3737.00,0.0090
3736.00,0.0090
3735.00,0.0088
3734.00,0.0086
3733.00,0.0086
3732.00,0.0085
3731.00,0.0085
3730.00,0.0083
3729.00,0.0083
3728.00,0.0083
3727.00,0.0084
3726.00,0.0083
3725.00,0.0083
3724.00,0.0082
3723.00,0.0082
3722.00,0.0082
3721.00,0.0081
3720.00,0.0081
3719.00,0.0080
3718.00,0.0080
3717.00,0.0080
3716.00,0.0080
3715.00,0.0081
3714.00,0.0083
3713.00,0.0086
3712.00,0.0087
3711.00,0.0088
3710.00,0.0089
3709.00,0.0089
3708.00,0.0089
3707.00,0.0089
3706.00,0.0088
3705.00,0.0087
3704.00,0.0087
3703.00,0.0087
3702.00,0.0087
3701.00,0.0086
3700.00,0.0087
3699.00,0.0087
3698.00,0.0088
3697.00,0.0089
3696.00,0.0089
3695.00,0.0091
3694.00,0.0093
3693.00,0.0095
3692.00,0.0097
3691.00,0.0098
3690.00,0.0100
3689.00,0.0102
3688.00,0.0105
3687.00,0.0107
3686.00,0.0108
3685.00,0.0109
3684.00,0.0109
3683.00,0.0110
3682.00,0.0111
3681.00,0.0113
3680.00,0.0114
3679.00,0.0115
3678.00,0.0118
3677.00,0.0122
3676.00,0.0127
3675.00,0.0131
3674.00,0.0134
3673.00,0.0138
3672.00,0.0143
3671.00,0.0147
3670.00,0.0149
3669.00,0.0149
3668.00,0.0150
3667.00,0.0151
3666.00,0.0153
3665.00,0.0155
3664.00,0.0156
3663.00,0.0157
3662.00,0.0159
3661.00,0.0162
3660.00,0.0165
3659.00,0.0168
3658.00,0.0173
3657.00,0.0179
3656.00,0.0185
3655.00,0.0191
3654.00,0.0196
3653.00,0.0202
3652.00,0.0209
3651.00,0.0217
3650.00,0.0224
3649.00,0.0232
3648.00,0.0240
3647.00,0.0246
3646.00,0.0250
3645.00,0.0252
3644.00,0.0255
3643.00,0.0257
3642.00,0.0260
3641.00,0.0263
3640.00,0.0267
3639.00,0.0273
3638.00,0.0278
3637.00,0.0284
3636.00,0.0290
3635.00,0.0296
3634.00,0.0302
3633.00,0.0307
3632.00,0.0312
3631.00,0.0320
3630.00,0.0329
3629.00,0.0339
3628.00,0.0349
3627.00,0.0358
3626.00,0.0366
3625.00,0.0372
3624.00,0.0377
3623.00,0.0381
3622.00,0.0386
3621.00,0.0392
3620.00,0.0399
3619.00,0.0407
3618.00,0.0416
3617.00,0.0425
3616.00,0.0433
3615.00,0.0441
3614.00,0.0447
3613.00,0.0453
3612.00,0.0460
3611.00,0.0467
3610.00,0.0475
3609.00,0.0482
3608.00,0.0489
3607.00,0.0495
3606.00,0.0501
3605.00,0.0507
3604.00,0.0513
3603.00,0.0519
3602.00,0.0525
3601.00,0.0531
3600.00,0.0537
3599.00,0.0544
3598.00,0.0551
3597.00,0.0559
3596.00,0.0566
3595.00,0.0573
3594.00,0.0580
3593.00,0.0587
3592.00,0.0593
3591.00,0.0599
3590.00,0.0606
3589.00,0.0614
3588.00,0.0623
3587.00,0.0632
3586.00,0.0641
3585.00,0.0649
3584.00,0.0656
3583.00,0.0661
3582.00,0.0666
3581.00,0.0670
3580.00,0.0675
3579.00,0.0680
3578.00,0.0687
3577.00,0.0693
3576.00,0.0701
3575.00,0.0708
3574.00,0.0714
3573.00,0.0721
3572.00,0.0727
3571.00,0.0734
3570.00,0.0741
3569.00,0.0749
3568.00,0.0758
3567.00,0.0768
3566.00,0.0777
3565.00,0.0786
3564.00,0.0794
3563.00,0.0800
3562.00,0.0804
3561.00,0.0809
3560.00,0.0813
3559.00,0.0818
3558.00,0.0824
3557.00,0.0830
3556.00,0.0836
3555.00,0.0843
3554.00,0.0849
3553.00,0.0856
3552.00,0.0863
3551.00,0.0870
3550.00,0.0878
3549.00,0.0886
3548.00,0.0893
3547.00,0.0900
3546.00,0.0907
3545.00,0.0914
3544.00,0.0921
3543.00,0.0928
3542.00,0.0934
3541.00,0.0940
3540.00,0.0945
3539.00,0.0951
3538.00,0.0956
3537.00,0.0962
3536.00,0.0968
3535.00,0.0974
3534.00,0.0981
3533.00,0.0987
3532.00,0.0993
3531.00,0.0999
3530.00,0.1004
3529.00,0.1011
3528.00,0.1018
3527.00,0.1026
3526.00,0.1034
3525.00,0.1041
3524.00,0.1048
3523.00,0.1054
3522.00,0.1059
3521.00,0.1064
3520.00,0.1070
3519.00,0.1075
3518.00,0.1080
3517.00,0.1086
3516.00,0.1092
3515.00,0.1098
3514.00,0.1104
3513.00,0.1110
3512.00,0.1116
3511.00,0.1122
3510.00,0.1128
3509.00,0.1135
3508.00,0.1141
3507.00,0.1148
3506.00,0.1155
3505.00,0.1162
3504.00,0.1168
3503.00,0.1175
3502.00,0.1181
3501.00,0.1187
3500.00,0.1193
3499.00,0.1198
3498.00,0.1204
3497.00,0.1209
3496.00,0.1215
3495.00,0.1220
3494.00,0.1226
3493.00,0.1231
3492.00,0.1237
3491.00,0.1242
3490.00,0.1248
3489.00,0.1254
3488.00,0.1261
3487.00,0.1267
3486.00,0.1272
3485.00,0.1278
3484.00,0.1284
3483.00,0.1291
3482.00,0.1297
3481.00,0.1304
3480.00,0.1310
3479.00,0.1316
3478.00,0.1321
3477.00,0.1326
3476.00,0.1331
3475.00,0.1336
3474.00,0.1342
3473.00,0.1348
3472.00,0.1354
3471.00,0.1361
3470.00,0.1367
3469.00,0.1373
3468.00,0.1378
3467.00,0.1383
3466.00,0.1388
3465.00,0.1393
3464.00,0.1399
3463.00,0.1404
3462.00,0.1410
3461.00,0.1417
3460.00,0.1423
3459.00,0.1429
3458.00,0.1434
3457.00,0.1438
3456.00,0.1443
3455.00,0.1447
3454.00,0.1452
3453.00,0.1458
3452.00,0.1463
3451.00,0.1468
3450.00,0.1473
3449.00,0.1478
3448.00,0.1484
3447.00,0.1490
3446.00,0.1496
3445.00,0.1501
3444.00,0.1507
3443.00,0.1512
3442.00,0.1517
3441.00,0.1522
3440.00,0.1528
3439.00,0.1533
3438.00,0.1539
3437.00,0.1544
3436.00,0.1548
3435.00,0.1553
3434.00,0.1557
3433.00,0.1561
3432.00,0.1566
3431.00,0.1571
3430.00,0.1575
3429.00,0.1580
3428.00,0.1584
3427.00,0.1589
3426.00,0.1593
3425.00,0.1597
3424.00,0.1602
3423.00,0.1606
3422.00,0.1610
3421.00,0.1615
3420.00,0.1620
3419.00,0.1624
3418.00,0.1629
3417.00,0.1633
3416.00,0.1637
3415.00,0.1641
3414.00,0.1645
3413.00,0.1650
3412.00,0.1654
3411.00,0.1657
3410.00,0.1661
3409.00,0.1664
3408.00,0.1667
3407.00,0.1670
3406.00,0.1674
3405.00,0.1677
3404.00,0.1681
3403.00,0.1684
3402.00,0.1688
3401.00,0.1691
3400.00,0.1693
3399.00,0.1696
3398.00,0.1699
3397.00,0.1702
3396.00,0.1704
3395.00,0.1707
3394.00,0.1710
3393.00,0.1712
3392.00,0.1715
3391.00,0.1717
3390.00,0.1719
3389.00,0.1720
3388.00,0.1722
3387.00,0.1723
3386.00,0.1725
3385.00,0.1727
3384.00,0.1729
3383.00,0.1731
3382.00,0.1733
3381.00,0.1735
3380.00,0.1736
3379.00,0.1737
3378.00,0.1738
3377.00,0.1739
3376.00,0.1740
3375.00,0.1741
3374.00,0.1742
3373.00,0.1744
3372.00,0.1746
3371.00,0.1747
3370.00,0.1748
3369.00,0.1749
3368.00,0.1750
3367.00,0.1750
3366.00,0.1750
3365.00,0.1750
3364.00,0.1751
3363.00,0.1751
3362.00,0.1752
3361.00,0.1752
3360.00,0.1752
3359.00,0.1752
3358.00,0.1752
3357.00,0.1752
3356.00,0.1752
3355.00,0.1752
3354.00,0.1752
3353.00,0.1752
3352.00,0.1752
3351.00,0.1751
3350.00,0.1751
3349.00,0.1750
3348.00,0.1748
3347.00,0.1747
3346.00,0.1747
3345.00,0.1746
3344.00,0.1746
3343.00,0.1746
3342.00,0.1745
3341.00,0.1745
3340.00,0.1744
3339.00,0.1743
3338.00,0.1742
3337.00,0.1740
3336.00,0.1739
3335.00,0.1738
3334.00,0.1736
3333.00,0.1735
3332.00,0.1733
3331.00,0.1732
3330.00,0.1730
3329.00,0.1729
3328.00,0.1728
3327.00,0.1726
3326.00,0.1726
3325.00,0.1725
3324.00,0.1724
3323.00,0.1722
3322.00,0.1721
3321.00,0.1720
3320.00,0.1718
3319.00,0.1717
3318.00,0.1716
3317.00,0.1714
3316.00,0.1712
3315.00,0.1711
3314.00,0.1709
3313.00,0.1708
3312.00,0.1707
3311.00,0.1707
3310.00,0.1705
3309.00,0.1704
3308.00,0.1703
3307.00,0.1702
3306.00,0.1701
3305.00,0.1700
3304.00,0.1699
3303.00,0.1698
3302.00,0.1696
3301.00,0.1694
3300.00,0.1693
3299.00,0.1691
3298.00,0.1690
3297.00,0.1688
3296.00,0.1687
3295.00,0.1686
3294.00,0.1684
3293.00,0.1682
3292.00,0.1681
3291.00,0.1680
3290.00,0.1679
3289.00,0.1677
3288.00,0.1675
3287.00,0.1673
3286.00,0.1671
3285.00,0.1669
3284.00,0.1666
3283.00,0.1664
3282.00,0.1661
3281.00,0.1659
3280.00,0.1656
3279.00,0.1654
3278.00,0.1652
3277.00,0.1649
3276.00,0.1647
3275.00,0.1645
3274.00,0.1642
3273.00,0.1639
3272.00,0.1636
3271.00,0.1633
3270.00,0.1630
3269.00,0.1626
3268.00,0.1623
3267.00,0.1619
3266.00,0.1615
3265.00,0.1611
3264.00,0.1608
3263.00,0.1605
3262.00,0.1601
3261.00,0.1597
3260.00,0.1593
3259.00,0.1589
3258.00,0.1584
3257.00,0.1580
3256.00,0.1576
3255.00,0.1571
3254.00,0.1567
3253.00,0.1563
3252.00,0.1558
3251.00,0.1554
3250.00,0.1550
3249.00,0.1546
3248.00,0.1541
3247.00,0.1537
3246.00,0.1533
3245.00,0.1529
3244.00,0.1524
3243.00,0.1520
3242.00,0.1515
3241.00,0.1511
3240.00,0.1506
3239.00,0.1501
3238.00,0.1497
3237.00,0.1492
3236.00,0.1487
3235.00,0.1483
3234.00,0.1478
3233.00,0.1474
3232.00,0.1469
3231.00,0.1464
3230.00,0.1459
3229.00,0.1454
3228.00,0.1449
3227.00,0.1444
3226.00,0.1439
3225.00,0.1434
3224.00,0.1429
3223.00,0.1424
3222.00,0.1419
3221.00,0.1413
3220.00,0.1408
3219.00,0.1403
3218.00,0.1398
3217.00,0.1393
3216.00,0.1387
3215.00,0.1382
3214.00,0.1376
3213.00,0.1371
3212.00,0.1366
3211.00,0.1361
3210.00,0.1355
3209.00,0.1349
3208.00,0.1343
3207.00,0.1337
3206.00,0.1332
3205.00,0.1326
3204.00,0.1321
3203.00,0.1316
3202.00,0.1310
3201.00,0.1303
3200.00,0.1297
3199.00,0.1291
3198.00,0.1286
3197.00,0.1280
3196.00,0.1274
3195.00,0.1268
3194.00,0.1262
3193.00,0.1256
3192.00,0.1249
3191.00,0.1243
3190.00,0.1237
3189.00,0.1231
3188.00,0.1225
3187.00,0.1219
3186.00,0.1213
3185.00,0.1206
3184.00,0.1200
3183.00,0.1194
3182.00,0.1188
3181.00,0.1182
3180.00,0.1175
3179.00,0.1169
3178.00,0.1163
3177.00,0.1157
3176.00,0.1151
3175.00,0.1144
3174.00,0.1138
3173.00,0.1131
3172.00,0.1125
3171.00,0.1118
3170.00,0.1111
3169.00,0.1105
3168.00,0.1098
3167.00,0.1091
3166.00,0.1085
3165.00,0.1079
3164.00,0.1073
3163.00,0.1067
3162.00,0.1060
3161.00,0.1054
3160.00,0.1047
3159.00,0.1041
3158.00,0.1035
3157.00,0.1029
3156.00,0.1023
3155.00,0.1017
3154.00,0.1011
3153.00,0.1005
3152.00,0.0999
3151.00,0.0993
3150.00,0.0987
3149.00,0.0981
3148.00,0.0975
3147.00,0.0969
3146.00,0.0963
3145.00,0.0958
3144.00,0.0952
3143.00,0.0946
3142.00,0.0940
3141.00,0.0934
3140.00,0.0928
3139.00,0.0922
3138.00,0.0917
3137.00,0.0911
3136.00,0.0906
3135.00,0.0901
3134.00,0.0895
3133.00,0.0890
3132.00,0.0885
3131.00,0.0880
3130.00,0.0874
3129.00,0.0870
3128.00,0.0865
3127.00,0.0859
3126.00,0.0854
3125.00,0.0849
3124.00,0.0844
3123.00,0.0839
3122.00,0.0834
3121.00,0.0829
3120.00,0.0824
3119.00,0.0819
3118.00,0.0814
3117.00,0.0810
3116.00,0.0806
3115.00,0.0802
3114.00,0.0798
3113.00,0.0794
3112.00,0.0789
3111.00,0.0785
3110.00,0.0780
3109.00,0.0776
3108.00,0.0772
3107.00,0.0768
3106.00,0.0764
3105.00,0.0760
3104.00,0.0757
3103.00,0.0753
3102.00,0.0749
3101.00,0.0745
3100.00,0.0740
3099.00,0.0737
3098.00,0.0733
3097.00,0.0730
3096.00,0.0726
3095.00,0.0722
3094.00,0.0718
3093.00,0.0715
3092.00,0.0711
3091.00,0.0708
3090.00,0.0704
3089.00,0.0701
3088.00,0.0697
3087.00,0.0694
3086.00,0.0690
3085.00,0.0687
3084.00,0.0684
3083.00,0.0681
3082.00,0.0678
3081.00,0.0675
3080.00,0.0672
3079.00,0.0669
3078.00,0.0666
3077.00,0.0663
3076.00,0.0660
3075.00,0.0657
3074.00,0.0653
3073.00,0.0650
3072.00,0.0647
3071.00,0.0644
3070.00,0.0640
3069.00,0.0637
3068.00,0.0633
3067.00,0.0630
3066.00,0.0627
3065.00,0.0624
3064.00,0.0621
3063.00,0.0618
3062.00,0.0615
3061.00,0.0611
3060.00,0.0608
3059.00,0.0604
3058.00,0.0601
3057.00,0.0597
3056.00,0.0594
3055.00,0.0590
3054.00,0.0586
3053.00,0.0582
3052.00,0.0579
3051.00,0.0576
3050.00,0.0573
3049.00,0.0570
3048.00,0.0566
3047.00,0.0563
3046.00,0.0560
3045.00,0.0556
3044.00,0.0553
3043.00,0.0549
3042.00,0.0546
3041.00,0.0542
3040.00,0.0539
3039.00,0.0536
3038.00,0.0533
3037.00,0.0530
3036.00,0.0528
3035.00,0.0525
3034.00,0.0522
3033.00,0.0520
3032.00,0.0517
3031.00,0.0515
3030.00,0.0512
3029.00,0.0510
3028.00,0.0507
3027.00,0.0505
3026.00,0.0502
3025.00,0.0499
3024.00,0.0497
3023.00,0.0494
3022.00,0.0492
3021.00,0.0490
3020.00,0.0488
3019.00,0.0487
3018.00,0.0485
3017.00,0.0484
3016.00,0.0482
3015.00,0.0480
3014.00,0.0478
3013.00,0.0476
3012.00,0.0475
3011.00,0.0473
3010.00,0.0472
3009.00,0.0470
3008.00,0.0467
3007.00,0.0465
3006.00,0.0463
3005.00,0.0461
3004.00,0.0460
3003.00,0.0458
3002.00,0.0456
3001.00,0.0454
3000.00,0.0453
2999.00,0.0452
2998.00,0.0451
2997.00,0.0450
2996.00,0.0450
2995.00,0.0449
2994.00,0.0449
2993.00,0.0449
2992.00,0.0449
2991.00,0.0449
2990.00,0.0450
2989.00,0.0450
2988.00,0.0451
2987.00,0.0452
2986.00,0.0453
2985.00,0.0454
2984.00,0.0455
2983.00,0.0457
2982.00,0.0458
2981.00,0.0460
2980.00,0.0461
2979.00,0.0463
2978.00,0.0465
2977.00,0.0467
2976.00,0.0470
2975.00,0.0472
2974.00,0.0474
2973.00,0.0476
2972.00,0.0478
2971.00,0.0480
2970.00,0.0483
2969.00,0.0485
2968.00,0.0487
2967.00,0.0489
2966.00,0.0491
2965.00,0.0492
2964.00,0.0493
2963.00,0.0494
2962.00,0.0495
2961.00,0.0495
2960.00,0.0495
2959.00,0.0495
2958.00,0.0495
2957.00,0.0494
2956.00,0.0493
2955.00,0.0491
2954.00,0.0489
2953.00,0.0487
2952.00,0.0486
2951.00,0.0485
2950.00,0.0484
2949.00,0.0483
2948.00,0.0482
2947.00,0.0481
2946.00,0.0481
2945.00,0.0481
2944.00,0.0482
2943.00,0.0483
2942.00,0.0484
2941.00,0.0485
2940.00,0.0486
2939.00,0.0488
2938.00,0.0489
2937.00,0.0490
2936.00,0.0491
2935.00,0.0491
2934.00,0.0492
2933.00,0.0492
2932.00,0.0492
2931.00,0.0492
2930.00,0.0493
2929.00,0.0493
2928.00,0.0493
2927.00,0.0493
2926.00,0.0493
2925.00,0.0492
2924.00,0.0491
2923.00,0.0490
2922.00,0.0488
2921.00,0.0485
2920.00,0.0482
2919.00,0.0479
2918.00,0.0475
2917.00,0.0470
2916.00,0.0466
2915.00,0.0462
2914.00,0.0458
2913.00,0.0454
2912.00,0.0450
2911.00,0.0447
2910.00,0.0443
2909.00,0.0440
2908.00,0.0437
2907.00,0.0434
2906.00,0.0432
2905.00,0.0429
2904.00,0.0426
2903.00,0.0424
2902.00,0.0421
2901.00,0.0418
2900.00,0.0416
2899.00,0.0413
2898.00,0.0411
2897.00,0.0408
2896.00,0.0405
2895.00,0.0402
2894.00,0.0400
2893.00,0.0397
2892.00,0.0395
2891.00,0.0392
2890.00,0.0390
2889.00,0.0388
2888.00,0.0386
2887.00,0.0383
2886.00,0.0381
2885.00,0.0379
2884.00,0.0377
2883.00,0.0375
2882.00,0.0373
2881.00,0.0371
2880.00,0.0370
2879.00,0.0368
2878.00,0.0367
2877.00,0.0365
2876.00,0.0364
2875.00,0.0362
2874.00,0.0360
2873.00,0.0358
2872.00,0.0356
2871.00,0.0353
2870.00,0.0351
2869.00,0.0348
2868.00,0.0345
2867.00,0.0342
2866.00,0.0339
2865.00,0.0337
2864.00,0.0335
2863.00,0.0333
2862.00,0.0331
2861.00,0.0330
2860.00,0.0330
2859.00,0.0330
2858.00,0.0329
2857.00,0.0329
2856.00,0.0330
2855.00,0.0330
2854.00,0.0329
2853.00,0.0328
2852.00,0.0326
2851.00,0.0324
2850.00,0.0320
2849.00,0.0316
2848.00,0.0311
2847.00,0.0306
2846.00,0.0301
2845.00,0.0297
2844.00,0.0292
2843.00,0.0288
2842.00,0.0285
2841.00,0.0282
2840.00,0.0279
2839.00,0.0276
2838.00,0.0274
2837.00,0.0271
2836.00,0.0269
2835.00,0.0267
2834.00,0.0266
2833.00,0.0264
2832.00,0.0262
2831.00,0.0261
2830.00,0.0259
2829.00,0.0258
2828.00,0.0257
2827.00,0.0255
2826.00,0.0254
2825.00,0.0253
2824.00,0.0252
2823.00,0.0250
2822.00,0.0249
2821.00,0.0248
2820.00,0.0247
2819.00,0.0245
2818.00,0.0244
2817.00,0.0243
2816.00,0.0242
2815.00,0.0241
2814.00,0.0240
2813.00,0.0238
2812.00,0.0237
2811.00,0.0236
2810.00,0.0235
2809.00,0.0234
2808.00,0.0233
2807.00,0.0232
2806.00,0.0230
2805.00,0.0229
2804.00,0.0228
2803.00,0.0227
2802.00,0.0226
2801.00,0.0225
2800.00,0.0224
2799.00,0.0223
2798.00,0.0222
2797.00,0.0221
2796.00,0.0220
2795.00,0.0219
2794.00,0.0218
2793.00,0.0217
2792.00,0.0216
2791.00,0.0215
2790.00,0.0214
2789.00,0.0214
2788.00,0.0213
2787.00,0.0213
2786.00,0.0212
2785.00,0.0211
2784.00,0.0210
2783.00,0.0209
2782.00,0.0208
2781.00,0.0207
2780.00,0.0206
2779.00,0.0205
2778.00,0.0205
2777.00,0.0204
2776.00,0.0203
2775.00,0.0203
2774.00,0.0202
2773.00,0.0201
2772.00,0.0201
2771.00,0.0200
2770.00,0.0199
2769.00,0.0199
2768.00,0.0199
2767.00,0.0198
2766.00,0.0198
2765.00,0.0197
2764.00,0.0196
2763.00,0.0195
2762.00,0.0194
2761.00,0.0194
2760.00,0.0193
2759.00,0.0192
2758.00,0.0192
2757.00,0.0191
2756.00,0.0191
2755.00,0.0190
2754.00,0.0190
2753.00,0.0189
2752.00,0.0189
2751.00,0.0189
2750.00,0.0188
2749.00,0.0188
2748.00,0.0188
2747.00,0.0187
2746.00,0.0186
2745.00,0.0186
2744.00,0.0185
2743.00,0.0185
2742.00,0.0184
2741.00,0.0183
2740.00,0.0183
2739.00,0.0182
2738.00,0.0182
2737.00,0.0181
2736.00,0.0181
2735.00,0.0180
2734.00,0.0180
2733.00,0.0180
2732.00,0.0179
2731.00,0.0179
2730.00,0.0178
2729.00,0.0178
2728.00,0.0177
2727.00,0.0177
2726.00,0.0176
2725.00,0.0176
2724.00,0.0175
2723.00,0.0175
2722.00,0.0174
2721.00,0.0174
2720.00,0.0173
2719.00,0.0173
2718.00,0.0172
2717.00,0.0172
2716.00,0.0171
2715.00,0.0170
2714.00,0.0170
2713.00,0.0170
2712.00,0.0169
2711.00,0.0169
2710.00,0.0169
2709.00,0.0169
2708.00,0.0168
2707.00,0.0167
2706.00,0.0167
2705.00,0.0167
2704.00,0.0166
2703.00,0.0166
2702.00,0.0166
2701.00,0.0165
2700.00,0.0165
2699.00,0.0165
2698.00,0.0164
2697.00,0.0164
2696.00,0.0163
2695.00,0.0163
2694.00,0.0163
2693.00,0.0162
2692.00,0.0162
2691.00,0.0161
2690.00,0.0161
2689.00,0.0160
2688.00,0.0160
2687.00,0.0160
2686.00,0.0159
2685.00,0.0159
2684.00,0.0159
2683.00,0.0159
2682.00,0.0159
2681.00,0.0159
2680.00,0.0159
2679.00,0.0158
2678.00,0.0158
2677.00,0.0157
2676.00,0.0157
2675.00,0.0156
2674.00,0.0156
2673.00,0.0155
2672.00,0.0155
2671.00,0.0155
2670.00,0.0154
2669.00,0.0154
2668.00,0.0154
2667.00,0.0154
2666.00,0.0154
2665.00,0.0153
2664.00,0.0153
2663.00,0.0154
2662.00,0.0154
2661.00,0.0155
2660.00,0.0155
2659.00,0.0155
2658.00,0.0154
2657.00,0.0154
2656.00,0.0153
2655.00,0.0153
2654.00,0.0152
2653.00,0.0152
2652.00,0.0152
2651.00,0.0151
2650.00,0.0151
2649.00,0.0151
2648.00,0.0151
2647.00,0.0150
2646.00,0.0150
2645.00,0.0149
2644.00,0.0149
2643.00,0.0148
2642.00,0.0148
2641.00,0.0148
2640.00,0.0147
2639.00,0.0146
2638.00,0.0145
2637.00,0.0145
2636.00,0.0144
2635.00,0.0144
2634.00,0.0143
2633.00,0.0143
2632.00,0.0142
2631.00,0.0142
2630.00,0.0141
2629.00,0.0141
2628.00,0.0141
2627.00,0.0141
2626.00,0.0140
2625.00,0.0140
2624.00,0.0139
2623.00,0.0139
2622.00,0.0138
2621.00,0.0138
2620.00,0.0137
2619.00,0.0137
2618.00,0.0136
2617.00,0.0136
2616.00,0.0135
2615.00,0.0135
2614.00,0.0135
2613.00,0.0135
2612.00,0.0135
2611.00,0.0134
2610.00,0.0133
2609.00,0.0133
2608.00,0.0133
2607.00,0.0132
2606.00,0.0132
2605.00,0.0132
2604.00,0.0132
2603.00,0.0131
2602.00,0.0131
2601.00,0.0130
2600.00,0.0130
2599.00,0.0130
2598.00,0.0130
2597.00,0.0129
2596.00,0.0129
2595.00,0.0129
2594.00,0.0129
2593.00,0.0128
2592.00,0.0127
2591.00,0.0127
2590.00,0.0126
2589.00,0.0126
2588.00,0.0125
2587.00,0.0124
2586.00,0.0123
2585.00,0.0123
2584.00,0.0124
2583.00,0.0124
2582.00,0.0124
2581.00,0.0124
2580.00,0.0124
2579.00,0.0124
2578.00,0.0124
2577.00,0.0124
2576.00,0.0124
2575.00,0.0123
2574.00,0.0122
2573.00,0.0122
2572.00,0.0121
2571.00,0.0121
2570.00,0.0121
2569.00,0.0120
2568.00,0.0119
2567.00,0.0119
2566.00,0.0119
2565.00,0.0118
2564.00,0.0118
2563.00,0.0118
2562.00,0.0118
2561.00,0.0118
2560.00,0.0118
2559.00,0.0118
2558.00,0.0118
2557.00,0.0117
2556.00,0.0117
2555.00,0.0116
2554.00,0.0116
2553.00,0.0116
2552.00,0.0116
2551.00,0.0116
2550.00,0.0116
2549.00,0.0116
2548.00,0.0116
2547.00,0.0115
2546.00,0.0115
2545.00,0.0115
2544.00,0.0114
2543.00,0.0114
2542.00,0.0114
2541.00,0.0114
2540.00,0.0114
2539.00,0.0113
2538.00,0.0113
2537.00,0.0113
2536.00,0.0113
2535.00,0.0113
2534.00,0.0114
2533.00,0.0114
2532.00,0.0114
2531.00,0.0114
2530.00,0.0113
2529.00,0.0113
2528.00,0.0112
2527.00,0.0112
2526.00,0.0112
2525.00,0.0112
2524.00,0.0112
2523.00,0.0112
2522.00,0.0111
2521.00,0.0112
2520.00,0.0112
2519.00,0.0112
2518.00,0.0112
2517.00,0.0112
2516.00,0.0112
2515.00,0.0111
2514.00,0.0111
2513.00,0.0112
2512.00,0.0112
2511.00,0.0113
2510.00,0.0112
2509.00,0.0112
2508.00,0.0111
2507.00,0.0110
2506.00,0.0110
2505.00,0.0110
2504.00,0.0110
2503.00,0.0110
2502.00,0.0110
2501.00,0.0109
2500.00,0.0109
2499.00,0.0109
2498.00,0.0109
2497.00,0.0110
2496.00,0.0110
2495.00,0.0111
2494.00,0.0111
2493.00,0.0110
2492.00,0.0110
2491.00,0.0109
2490.00,0.0110
2489.00,0.0110
2488.00,0.0111
2487.00,0.0111
2486.00,0.0111
2485.00,0.0110
2484.00,0.0109
2483.00,0.0109
2482.00,0.0108
2481.00,0.0109
2480.00,0.0109
2479.00,0.0109
2478.00,0.0109
2477.00,0.0109
2476.00,0.0108
2475.00,0.0108
2474.00,0.0108
2473.00,0.0107
2472.00,0.0107
2471.00,0.0107
2470.00,0.0107
2469.00,0.0107
2468.00,0.0108
2467.00,0.0108
2466.00,0.0108
2465.00,0.0107
2464.00,0.0107
2463.00,0.0107
2462.00,0.0107
2461.00,0.0108
2460.00,0.0108
2459.00,0.0108
2458.00,0.0108
2457.00,0.0108
2456.00,0.0108
2455.00,0.0108
2454.00,0.0108
2453.00,0.0108
2452.00,0.0108
2451.00,0.0108
2450.00,0.0108
2449.00,0.0108
2448.00,0.0108
2447.00,0.0107
2446.00,0.0107
2445.00,0.0107
2444.00,0.0107
2443.00,0.0108
2442.00,0.0108
2441.00,0.0108
2440.00,0.0108
2439.00,0.0107
2438.00,0.0106
2437.00,0.0106
2436.00,0.0105
2435.00,0.0105
2434.00,0.0105
2433.00,0.0105
2432.00,0.0105
2431.00,0.0105
2430.00,0.0104
2429.00,0.0104
2428.00,0.0104
2427.00,0.0104
2426.00,0.0105
2425.00,0.0106
2424.00,0.0105
2423.00,0.0105
2422.00,0.0104
2421.00,0.0104
2420.00,0.0104
2419.00,0.0104
2418.00,0.0104
2417.00,0.0104
2416.00,0.0103
2415.00,0.0103
2414.00,0.0103
2413.00,0.0103
2412.00,0.0104
2411.00,0.0104
2410.00,0.0104
2409.00,0.0104
2408.00,0.0103
2407.00,0.0102
2406.00,0.0102
2405.00,0.0102
2404.00,0.0102
2403.00,0.0103
2402.00,0.0103
2401.00,0.0104
2400.00,0.0104
2399.00,0.0103
2398.00,0.0103
2397.00,0.0103
2396.00,0.0103
2395.00,0.0104
2394.00,0.0105
2393.00,0.0105
2392.00,0.0105
2391.00,0.0105
2390.00,0.0104
2389.00,0.0104
2388.00,0.0104
2387.00,0.0104
2386.00,0.0104
2385.00,0.0104
2384.00,0.0104
2383.00,0.0103
2382.00,0.0103
2381.00,0.0104
2380.00,0.0104
2379.00,0.0104
2378.00,0.0104
2377.00,0.0104
2376.00,0.0104
2375.00,0.0105
2374.00,0.0105
2373.00,0.0106
2372.00,0.0106
2371.00,0.0105
2370.00,0.0104
2369.00,0.0104
2368.00,0.0104
2367.00,0.0104
2366.00,0.0105
2365.00,0.0107
2364.00,0.0108
2363.00,0.0109
2362.00,0.0109
2361.00,0.0110
2360.00,0.0110
2359.00,0.0110
2358.00,0.0110
2357.00,0.0110
2356.00,0.0110
2355.00,0.0110
2354.00,0.0111
2353.00,0.0111
2352.00,0.0111
2351.00,0.0111
2350.00,0.0112
2349.00,0.0113
2348.00,0.0116
2347.00,0.0118
2346.00,0.0118
2345.00,0.0117
2344.00,0.0115
2343.00,0.0115
2342.00,0.0116
2341.00,0.0116
2340.00,0.0117
2339.00,0.0117
2338.00,0.0117
2337.00,0.0117
2336.00,0.0117
2335.00,0.0117
2334.00,0.0117
2333.00,0.0116
2332.00,0.0116
2331.00,0.0116
2330.00,0.0116
2329.00,0.0117
2328.00,0.0119
2327.00,0.0122
2326.00,0.0126
2325.00,0.0130
2324.00,0.0132
2323.00,0.0131
2322.00,0.0129
2321.00,0.0127
2320.00,0.0126
2319.00,0.0125
2318.00,0.0125
2317.00,0.0125
2316.00,0.0124
2315.00,0.0124
2314.00,0.0123
2313.00,0.0123
2312.00,0.0123
2311.00,0.0123
2310.00,0.0122
2309.00,0.0122
2308.00,0.0121
2307.00,0.0119
2306.00,0.0119
2305.00,0.0119
2304.00,0.0119
2303.00,0.0120
2302.00,0.0121
2301.00,0.0121
2300.00,0.0122
2299.00,0.0123
2298.00,0.0124
2297.00,0.0125
2296.00,0.0125
2295.00,0.0125
2294.00,0.0125
2293.00,0.0126
2292.00,0.0126
2291.00,0.0128
2290.00,0.0129
2289.00,0.0130
2288.00,0.0131
2287.00,0.0131
2286.00,0.0131
2285.00,0.0131
2284.00,0.0131
2283.00,0.0131
2282.00,0.0130
2281.00,0.0129
2280.00,0.0128
2279.00,0.0127
2278.00,0.0126
2277.00,0.0125
2276.00,0.0125
2275.00,0.0124
2274.00,0.0124
2273.00,0.0124
2272.00,0.0124
2271.00,0.0124
2270.00,0.0124
2269.00,0.0124
2268.00,0.0123
2267.00,0.0122
2266.00,0.0121
2265.00,0.0121
2264.00,0.0121
2263.00,0.0120
2262.00,0.0120
2261.00,0.0120
2260.00,0.0120
2259.00,0.0120
2258.00,0.0120
2257.00,0.0120
2256.00,0.0120
2255.00,0.0119
2254.00,0.0119
2253.00,0.0119
2252.00,0.0119
2251.00,0.0119
2250.00,0.0119
2249.00,0.0120
2248.00,0.0121
2247.00,0.0121
2246.00,0.0121
2245.00,0.0120
2244.00,0.0120
2243.00,0.0120
2242.00,0.0121
2241.00,0.0121
2240.00,0.0122
2239.00,0.0121
2238.00,0.0120
2237.00,0.0119
2236.00,0.0119
2235.00,0.0119
2234.00,0.0119
2233.00,0.0119
2232.00,0.0119
2231.00,0.0117
2230.00,0.0116
2229.00,0.0115
2228.00,0.0117
2227.00,0.0119
2226.00,0.0121
2225.00,0.0122
2224.00,0.0121
2223.00,0.0120
2222.00,0.0119
2221.00,0.0118
2220.00,0.0118
2219.00,0.0117
2218.00,0.0116
2217.00,0.0115
2216.00,0.0117
2215.00,0.0119
2214.00,0.0120
2213.00,0.0121
2212.00,0.0120
2211.00,0.0117
2210.00,0.0116
2209.00,0.0116
2208.00,0.0117
2207.00,0.0117
2206.00,0.0116
2205.00,0.0115
2204.00,0.0114
2203.00,0.0114
2202.00,0.0114
2201.00,0.0114
2200.00,0.0114
2199.00,0.0113
2198.00,0.0113
2197.00,0.0114
2196.00,0.0115
2195.00,0.0116
2194.00,0.0116
2193.00,0.0115
2192.00,0.0115
2191.00,0.0115
2190.00,0.0116
2189.00,0.0117
2188.00,0.0118
2187.00,0.0117
2186.00,0.0116
2185.00,0.0116
2184.00,0.0115
2183.00,0.0113
2182.00,0.0111
2181.00,0.0109
2180.00,0.0109
2179.00,0.0109
2178.00,0.0108
2177.00,0.0109
2176.00,0.0109
2175.00,0.0110
2174.00,0.0110
2173.00,0.0110
2172.00,0.0111
2171.00,0.0112
2170.00,0.0114
2169.00,0.0119
2168.00,0.0124
2167.00,0.0127
2166.00,0.0126
2165.00,0.0124
2164.00,0.0121
2163.00,0.0119
2162.00,0.0116
2161.00,0.0110
2160.00,0.0098
2159.00,0.0083
2158.00,0.0071
2157.00,0.0066
2156.00,0.0067
2155.00,0.0071
2154.00,0.0075
2153.00,0.0079
2152.00,0.0082
2151.00,0.0084
2150.00,0.0087
2149.00,0.0090
2148.00,0.0092
2147.00,0.0093
2146.00,0.0092
2145.00,0.0092
2144.00,0.0092
2143.00,0.0092
2142.00,0.0092
2141.00,0.0093
2140.00,0.0094
2139.00,0.0095
2138.00,0.0097
2137.00,0.0099
2136.00,0.0099
2135.00,0.0098
2134.00,0.0097
2133.00,0.0096
2132.00,0.0098
2131.00,0.0100
2130.00,0.0103
2129.00,0.0105
2128.00,0.0108
2127.00,0.0110
2126.00,0.0112
2125.00,0.0112
2124.00,0.0113
2123.00,0.0114
2122.00,0.0116
2121.00,0.0118
2120.00,0.0118
2119.00,0.0118
2118.00,0.0118
2117.00,0.0119
2116.00,0.0121
2115.00,0.0123
2114.00,0.0123
2113.00,0.0122
2112.00,0.0122
2111.00,0.0122
2110.00,0.0123
2109.00,0.0124
2108.00,0.0125
2107.00,0.0125
2106.00,0.0124
2105.00,0.0124
2104.00,0.0125
2103.00,0.0125
2102.00,0.0125
2101.00,0.0125
2100.00,0.0125
2099.00,0.0125
2098.00,0.0124
2097.00,0.0122
2096.00,0.0120
2095.00,0.0119
2094.00,0.0117
2093.00,0.0117
2092.00,0.0117
2091.00,0.0117
2090.00,0.0117
2089.00,0.0117
2088.00,0.0117
2087.00,0.0117
2086.00,0.0117
2085.00,0.0118
2084.00,0.0119
2083.00,0.0120
2082.00,0.0120
2081.00,0.0120
2080.00,0.0121
2079.00,0.0121
2078.00,0.0121
2077.00,0.0121
2076.00,0.0119
2075.00,0.0117
2074.00,0.0115
2073.00,0.0114
2072.00,0.0115
2071.00,0.0114
2070.00,0.0114
2069.00,0.0113
2068.00,0.0112
2067.00,0.0110
2066.00,0.0109
2065.00,0.0108
2064.00,0.0107
2063.00,0.0107
2062.00,0.0108
2061.00,0.0108
2060.00,0.0108
2059.00,0.0108
2058.00,0.0107
2057.00,0.0107
2056.00,0.0106
2055.00,0.0105
2054.00,0.0106
2053.00,0.0108
2052.00,0.0111
2051.00,0.0112
2050.00,0.0111
2049.00,0.0107
2048.00,0.0103
2047.00,0.0100
2046.00,0.0098
2045.00,0.0097
2044.00,0.0097
2043.00,0.0096
2042.00,0.0095
2041.00,0.0093
2040.00,0.0092
2039.00,0.0090
2038.00,0.0090
2037.00,0.0089
2036.00,0.0087
2035.00,0.0084
2034.00,0.0080
2033.00,0.0077
2032.00,0.0076
2031.00,0.0077
2030.00,0.0076
2029.00,0.0073
2028.00,0.0070
2027.00,0.0066
2026.00,0.0064
2025.00,0.0065
2024.00,0.0067
2023.00,0.0069
2022.00,0.0072
2021.00,0.0074
2020.00,0.0075
2019.00,0.0074
2018.00,0.0072
2017.00,0.0072
2016.00,0.0072
2015.00,0.0073
2014.00,0.0073
2013.00,0.0071
2012.00,0.0071
2011.00,0.0070
2010.00,0.0070
2009.00,0.0070
2008.00,0.0068
2007.00,0.0066
2006.00,0.0064
2005.00,0.0065
2004.00,0.0066
2003.00,0.0068
2002.00,0.0069
2001.00,0.0072
2000.00,0.0076
1999.00,0.0079
1998.00,0.0080
1997.00,0.0081
1996.00,0.0081
1995.00,0.0081
1994.00,0.0080
1993.00,0.0079
1992.00,0.0080
1991.00,0.0080
1990.00,0.0081
1989.00,0.0081
1988.00,0.0082
1987.00,0.0082
1986.00,0.0083
1985.00,0.0083
1984.00,0.0085
1983.00,0.0087
1982.00,0.0089
1981.00,0.0091
1980.00,0.0092
1979.00,0.0089
1978.00,0.0082
1977.00,0.0077
1976.00,0.0073
1975.00,0.0071
1974.00,0.0070
1973.00,0.0070
1972.00,0.0070
1971.00,0.0069
1970.00,0.0067
1969.00,0.0065
1968.00,0.0064
1967.00,0.0064
1966.00,0.0065
1965.00,0.0067
1964.00,0.0070
1963.00,0.0071
1962.00,0.0071
1961.00,0.0071
1960.00,0.0071
1959.00,0.0069
1958.00,0.0069
1957.00,0.0070
1956.00,0.0073
1955.00,0.0075
1954.00,0.0074
1953.00,0.0074
1952.00,0.0074
1951.00,0.0074
1950.00,0.0075
1949.00,0.0075
1948.00,0.0075
1947.00,0.0074
1946.00,0.0073
1945.00,0.0073
1944.00,0.0073
1943.00,0.0072
1942.00,0.0070
1941.00,0.0072
1940.00,0.0075
1939.00,0.0078
1938.00,0.0079
1937.00,0.0078
1936.00,0.0077
1935.00,0.0077
1934.00,0.0077
1933.00,0.0077
1932.00,0.0078
1931.00,0.0078
1930.00,0.0079
1929.00,0.0079
1928.00,0.0080
1927.00,0.0080
1926.00,0.0080
1925.00,0.0078
1924.00,0.0077
1923.00,0.0075
1922.00,0.0076
1921.00,0.0078
1920.00,0.0082
1919.00,0.0083
1918.00,0.0082
1917.00,0.0080
1916.00,0.0079
1915.00,0.0080
1914.00,0.0080
1913.00,0.0081
1912.00,0.0082
1911.00,0.0081
1910.00,0.0080
1909.00,0.0078
1908.00,0.0077
1907.00,0.0077
1906.00,0.0077
1905.00,0.0077
1904.00,0.0077
1903.00,0.0077
1902.00,0.0078
1901.00,0.0078
1900.00,0.0079
1899.00,0.0079
1898.00,0.0079
1897.00,0.0079
1896.00,0.0078
1895.00,0.0077
1894.00,0.0077
1893.00,0.0077
1892.00,0.0078
1891.00,0.0078
1890.00,0.0076
1889.00,0.0074
1888.00,0.0073
1887.00,0.0073
1886.00,0.0073
1885.00,0.0073
1884.00,0.0073
1883.00,0.0073
1882.00,0.0074
1881.00,0.0074
1880.00,0.0074
1879.00,0.0073
1878.00,0.0071
1877.00,0.0071
1876.00,0.0072
1875.00,0.0073
1874.00,0.0074
1873.00,0.0075
1872.00,0.0076
1871.00,0.0077
1870.00,0.0076
1869.00,0.0073
1868.00,0.0070
1867.00,0.0068
1866.00,0.0068
1865.00,0.0069
1864.00,0.0070
1863.00,0.0070
1862.00,0.0070
1861.00,0.0069
1860.00,0.0069
1859.00,0.0069
1858.00,0.0069
1857.00,0.0070
1856.00,0.0070
1855.00,0.0070
1854.00,0.0070
1853.00,0.0070
1852.00,0.0070
1851.00,0.0071
1850.00,0.0071
1849.00,0.0070
1848.00,0.0068
1847.00,0.0068
1846.00,0.0070
1845.00,0.0072
1844.00,0.0071
1843.00,0.0069
1842.00,0.0068
1841.00,0.0068
1840.00,0.0070
1839.00,0.0071
1838.00,0.0070
1837.00,0.0069
1836.00,0.0069
1835.00,0.0068
1834.00,0.0068
1833.00,0.0070
1832.00,0.0072
1831.00,0.0073
1830.00,0.0072
1829.00,0.0070
1828.00,0.0069
1827.00,0.0070
1826.00,0.0069
1825.00,0.0068
1824.00,0.0067
1823.00,0.0066
1822.00,0.0067
1821.00,0.0068
1820.00,0.0068
1819.00,0.0068
1818.00,0.0067
1817.00,0.0066
1816.00,0.0065
1815.00,0.0066
1814.00,0.0067
1813.00,0.0068
1812.00,0.0068
1811.00,0.0068
1810.00,0.0067
1809.00,0.0067
1808.00,0.0068
1807.00,0.0067
1806.00,0.0068
1805.00,0.0068
1804.00,0.0068
1803.00,0.0067
1802.00,0.0066
1801.00,0.0066
1800.00,0.0067
1799.00,0.0068
1798.00,0.0068
1797.00,0.0068
1796.00,0.0067
1795.00,0.0067
1794.00,0.0069
1793.00,0.0071
1792.00,0.0070
1791.00,0.0067
1790.00,0.0066
1789.00,0.0066
1788.00,0.0068
1787.00,0.0069
1786.00,0.0068
1785.00,0.0067
1784.00,0.0067
1783.00,0.0067
1782.00,0.0068
1781.00,0.0067
1780.00,0.0066
1779.00,0.0065
1778.00,0.0066
1777.00,0.0066
1776.00,0.0067
1775.00,0.0067
1774.00,0.0069
1773.00,0.0071
1772.00,0.0072
1771.00,0.0070
1770.00,0.0069
1769.00,0.0068
1768.00,0.0067
1767.00,0.0066
1766.00,0.0066
1765.00,0.0068
1764.00,0.0069
1763.00,0.0070
1762.00,0.0069
1761.00,0.0068
1760.00,0.0069
1759.00,0.0071
1758.00,0.0073
1757.00,0.0075
1756.00,0.0077
1755.00,0.0079
1754.00,0.0082
1753.00,0.0085
1752.00,0.0089
1751.00,0.0092
1750.00,0.0093
1749.00,0.0095
1748.00,0.0097
1747.00,0.0100
1746.00,0.0102
1745.00,0.0104
1744.00,0.0106
1743.00,0.0108
1742.00,0.0111
1741.00,0.0116
1740.00,0.0121
1739.00,0.0122
1738.00,0.0121
1737.00,0.0121
1736.00,0.0124
1735.00,0.0128
1734.00,0.0127
1733.00,0.0125
1732.00,0.0124
1731.00,0.0124
1730.00,0.0125
1729.00,0.0126
1728.00,0.0129
1727.00,0.0133
1726.00,0.0136
1725.00,0.0138
1724.00,0.0141
1723.00,0.0143
1722.00,0.0145
1721.00,0.0149
1720.00,0.0154
1719.00,0.0158
1718.00,0.0160
1717.00,0.0162
1716.00,0.0167
1715.00,0.0173
1714.00,0.0178
1713.00,0.0183
1712.00,0.0188
1711.00,0.0193
1710.00,0.0198
1709.00,0.0204
1708.00,0.0213
1707.00,0.0222
1706.00,0.0230
1705.00,0.0237
1704.00,0.0244
1703.00,0.0252
1702.00,0.0264
1701.00,0.0286
1700.00,0.0307
1699.00,0.0320
1698.00,0.0327
1697.00,0.0337
1696.00,0.0353
1695.00,0.0374
1694.00,0.0394
1693.00,0.0410
1692.00,0.0426
1691.00,0.0443
1690.00,0.0460
1689.00,0.0477
1688.00,0.0493
1687.00,0.0508
1686.00,0.0526
1685.00,0.0553
1684.00,0.0586
1683.00,0.0616
1682.00,0.0638
1681.00,0.0654
1680.00,0.0670
1679.00,0.0688
1678.00,0.0706
1677.00,0.0728
1676.00,0.0755
1675.00,0.0785
1674.00,0.0810
1673.00,0.0830
1672.00,0.0849
1671.00,0.0870
1670.00,0.0895
1669.00,0.0924
1668.00,0.0952
1667.00,0.0974
1666.00,0.0992
1665.00,0.1011
1664.00,0.1035
1663.00,0.1064
1662.00,0.1094
1661.00,0.1122
1660.00,0.1146
1659.00,0.1168
1658.00,0.1185
1657.00,0.1197
1656.00,0.1205
1655.00,0.1215
1654.00,0.1238
1653.00,0.1280
1652.00,0.1323
1651.00,0.1343
1650.00,0.1346
1649.00,0.1345
1648.00,0.1348
1647.00,0.1358
1646.00,0.1374
1645.00,0.1388
1644.00,0.1395
1643.00,0.1397
1642.00,0.1396
1641.00,0.1395
1640.00,0.1394
1639.00,0.1393
1638.00,0.1390
1637.00,0.1388
1636.00,0.1393
1635.00,0.1400
1634.00,0.1401
1633.00,0.1392
1632.00,0.1378
1631.00,0.1362
1630.00,0.1347
1629.00,0.1331
1628.00,0.1315
1627.00,0.1300
1626.00,0.1284
1625.00,0.1267
1624.00,0.1248
1623.00,0.1227
1622.00,0.1206
1621.00,0.1184
1620.00,0.1161
1619.00,0.1138
1618.00,0.1114
1617.00,0.1090
1616.00,0.1069
1615.00,0.1049
1614.00,0.1028
1613.00,0.1004
1612.00,0.0980
1611.00,0.0956
1610.00,0.0932
1609.00,0.0908
1608.00,0.0885
1607.00,0.0863
1606.00,0.0843
1605.00,0.0822
1604.00,0.0802
1603.00,0.0782
1602.00,0.0762
1601.00,0.0742
1600.00,0.0724
1599.00,0.0706
1598.00,0.0689
1597.00,0.0671
1596.00,0.0654
1595.00,0.0638
1594.00,0.0622
1593.00,0.0607
1592.00,0.0592
1591.00,0.0578
1590.00,0.0565
1589.00,0.0552
1588.00,0.0541
1587.00,0.0531
1586.00,0.0522
1585.00,0.0513
1584.00,0.0504
1583.00,0.0496
1582.00,0.0489
1581.00,0.0483
1580.00,0.0476
1579.00,0.0470
1578.00,0.0465
1577.00,0.0461
1576.00,0.0460
1575.00,0.0462
1574.00,0.0463
1573.00,0.0462
1572.00,0.0460
1571.00,0.0461
1570.00,0.0463
1569.00,0.0466
1568.00,0.0468
1567.00,0.0470
1566.00,0.0473
1565.00,0.0475
1564.00,0.0477
1563.00,0.0477
1562.00,0.0476
1561.00,0.0480
1560.00,0.0494
1559.00,0.0511
1558.00,0.0528
1557.00,0.0540
1556.00,0.0542
1555.00,0.0542
1554.00,0.0544
1553.00,0.0549
1552.00,0.0551
1551.00,0.0552
1550.00,0.0553
1549.00,0.0555
1548.00,0.0558
1547.00,0.0560
1546.00,0.0559
1545.00,0.0555
1544.00,0.0549
1543.00,0.0546
1542.00,0.0546
1541.00,0.0543
1540.00,0.0536
1539.00,0.0528
1538.00,0.0522
1537.00,0.0514
1536.00,0.0506
1535.00,0.0497
1534.00,0.0486
1533.00,0.0473
1532.00,0.0462
1531.00,0.0452
1530.00,0.0444
1529.00,0.0434
1528.00,0.0423
1527.00,0.0411
1526.00,0.0401
1525.00,0.0393
1524.00,0.0386
1523.00,0.0378
1522.00,0.0368
1521.00,0.0359
1520.00,0.0352
1519.00,0.0348
1518.00,0.0341
1517.00,0.0330
1516.00,0.0317
1515.00,0.0307
1514.00,0.0298
1513.00,0.0288
1512.00,0.0277
1511.00,0.0263
1510.00,0.0248
1509.00,0.0235
1508.00,0.0221
1507.00,0.0208
1506.00,0.0203
1505.00,0.0203
1504.00,0.0197
1503.00,0.0188
1502.00,0.0179
1501.00,0.0170
1500.00,0.0163
1499.00,0.0156
1498.00,0.0149
1497.00,0.0141
1496.00,0.0135
1495.00,0.0131
1494.00,0.0128
1493.00,0.0126
1492.00,0.0123
1491.00,0.0119
1490.00,0.0111
1489.00,0.0105
1488.00,0.0103
1487.00,0.0103
1486.00,0.0103
1485.00,0.0103
1484.00,0.0103
1483.00,0.0103
1482.00,0.0103
1481.00,0.0105
1480.00,0.0108
1479.00,0.0112
1478.00,0.0116
1477.00,0.0120
1476.00,0.0124
1475.00,0.0129
1474.00,0.0137
1473.00,0.0146
1472.00,0.0156
1471.00,0.0165
1470.00,0.0172
1469.00,0.0176
1468.00,0.0180
1467.00,0.0183
1466.00,0.0188
1465.00,0.0194
1464.00,0.0199
1463.00,0.0204
1462.00,0.0207
1461.00,0.0210
1460.00,0.0211
1459.00,0.0212
1458.00,0.0214
1457.00,0.0219
1456.00,0.0226
1455.00,0.0231
1454.00,0.0233
1453.00,0.0232
1452.00,0.0230
1451.00,0.0229
1450.00,0.0229
1449.00,0.0229
1448.00,0.0228
1447.00,0.0228
1446.00,0.0228
1445.00,0.0228
1444.00,0.0228
1443.00,0.0228
1442.00,0.0229
1441.00,0.0229
1440.00,0.0230
1439.00,0.0230
1438.00,0.0231
1437.00,0.0234
1436.00,0.0238
1435.00,0.0241
1434.00,0.0243
1433.00,0.0245
1432.00,0.0248
1431.00,0.0251
1430.00,0.0255
1429.00,0.0260
1428.00,0.0265
1427.00,0.0270
1426.00,0.0273
1425.00,0.0277
1424.00,0.0281
1423.00,0.0285
1422.00,0.0288
1421.00,0.0291
1420.00,0.0295
1419.00,0.0297
1418.00,0.0299
1417.00,0.0302
1416.00,0.0304
1415.00,0.0305
1414.00,0.0304
1413.00,0.0303
1412.00,0.0301
1411.00,0.0298
1410.00,0.0295
1409.00,0.0292
1408.00,0.0289
1407.00,0.0285
1406.00,0.0281
1405.00,0.0276
1404.00,0.0273
1403.00,0.0270
1402.00,0.0267
1401.00,0.0263
1400.00,0.0258
1399.00,0.0251
1398.00,0.0244
1397.00,0.0239
1396.00,0.0234
1395.00,0.0229
1394.00,0.0227
1393.00,0.0225
1392.00,0.0224
1391.00,0.0222
1390.00,0.0220
1389.00,0.0217
1388.00,0.0215
1387.00,0.0214
1386.00,0.0215
1385.00,0.0217
1384.00,0.0220
1383.00,0.0223
1382.00,0.0225
1381.00,0.0227
1380.00,0.0228
1379.00,0.0230
1378.00,0.0231
1377.00,0.0232
1376.00,0.0232
1375.00,0.0231
1374.00,0.0230
1373.00,0.0230
1372.00,0.0232
1371.00,0.0232
1370.00,0.0231
1369.00,0.0229
1368.00,0.0227
1367.00,0.0225
1366.00,0.0222
1365.00,0.0218
1364.00,0.0212
1363.00,0.0205
1362.00,0.0201
1361.00,0.0200
1360.00,0.0200
1359.00,0.0199
1358.00,0.0197
1357.00,0.0194
1356.00,0.0190
1355.00,0.0186
1354.00,0.0183
1353.00,0.0179
1352.00,0.0175
1351.00,0.0170
1350.00,0.0164
1349.00,0.0159
1348.00,0.0153
1347.00,0.0148
1346.00,0.0142
1345.00,0.0136
1344.00,0.0130
1343.00,0.0124
1342.00,0.0117
1341.00,0.0108
1340.00,0.0098
1339.00,0.0091
1338.00,0.0087
1337.00,0.0085
1336.00,0.0084
1335.00,0.0082
1334.00,0.0080
1333.00,0.0077
1332.00,0.0073
1331.00,0.0070
1330.00,0.0068
1329.00,0.0066
1328.00,0.0066
1327.00,0.0065
1326.00,0.0066
1325.00,0.0066
1324.00,0.0068
1323.00,0.0069
1322.00,0.0071
1321.00,0.0072
1320.00,0.0074
1319.00,0.0076
1318.00,0.0077
1317.00,0.0079
1316.00,0.0081
1315.00,0.0082
1314.00,0.0083
1313.00,0.0084
1312.00,0.0086
1311.00,0.0088
1310.00,0.0090
1309.00,0.0092
1308.00,0.0095
1307.00,0.0097
1306.00,0.0101
1305.00,0.0105
1304.00,0.0110
1303.00,0.0116
1302.00,0.0122
1301.00,0.0130
1300.00,0.0138
1299.00,0.0148
1298.00,0.0158
1297.00,0.0170
1296.00,0.0182
1295.00,0.0196
1294.00,0.0211
1293.00,0.0227
1292.00,0.0245
1291.00,0.0264
1290.00,0.0285
1289.00,0.0308
1288.00,0.0332
1287.00,0.0359
1286.00,0.0387
1285.00,0.0417
1284.00,0.0447
1283.00,0.0478
1282.00,0.0509
1281.00,0.0542
1280.00,0.0576
1279.00,0.0610
1278.00,0.0644
1277.00,0.0678
1276.00,0.0713
1275.00,0.0748
1274.00,0.0783
1273.00,0.0819
1272.00,0.0854
1271.00,0.0889
1270.00,0.0924
1269.00,0.0958
1268.00,0.0991
1267.00,0.1023
1266.00,0.1054
1265.00,0.1085
1264.00,0.1114
1263.00,0.1142
1262.00,0.1169
1261.00,0.1194
1260.00,0.1219
1259.00,0.1242
1258.00,0.1264
1257.00,0.1284
1256.00,0.1303
1255.00,0.1321
1254.00,0.1338
1253.00,0.1354
1252.00,0.1369
1251.00,0.1382
1250.00,0.1395
1249.00,0.1407
1248.00,0.1419
1247.00,0.1431
1246.00,0.1443
1245.00,0.1455
1244.00,0.1468
1243.00,0.1480
1242.00,0.1493
1241.00,0.1506
1240.00,0.1519
1239.00,0.1533
1238.00,0.1547
1237.00,0.1561
1236.00,0.1575
1235.00,0.1589
1234.00,0.1603
1233.00,0.1617
1232.00,0.1631
1231.00,0.1644
1230.00,0.1657
1229.00,0.1670
1228.00,0.1683
1227.00,0.1694
1226.00,0.1705
1225.00,0.1716
1224.00,0.1726
1223.00,0.1735
1222.00,0.1741
1221.00,0.1745
1220.00,0.1747
1219.00,0.1745
1218.00,0.1741
1217.00,0.1733
1216.00,0.1723
1215.00,0.1710
1214.00,0.1692
1213.00,0.1671
1212.00,0.1647
1211.00,0.1620
1210.00,0.1589
1209.00,0.1556
1208.00,0.1521
1207.00,0.1484
1206.00,0.1444
1205.00,0.1403
1204.00,0.1361
1203.00,0.1319
1202.00,0.1276
1201.00,0.1235
1200.00,0.1195
1199.00,0.1156
1198.00,0.1120
1197.00,0.1087
1196.00,0.1056
1195.00,0.1026
1194.00,0.0999
1193.00,0.0974
1192.00,0.0951
1191.00,0.0929
1190.00,0.0906
1189.00,0.0885
1188.00,0.0865
1187.00,0.0846
1186.00,0.0828
1185.00,0.0813
1184.00,0.0799
1183.00,0.0787
1182.00,0.0776
1181.00,0.0768
1180.00,0.0762
1179.00,0.0758
1178.00,0.0756
1177.00,0.0757
1176.00,0.0759
1175.00,0.0764
1174.00,0.0771
1173.00,0.0780
1172.00,0.0793
1171.00,0.0807
1170.00,0.0824
1169.00,0.0843
1168.00,0.0864
1167.00,0.0886
1166.00,0.0909
1165.00,0.0932
1164.00,0.0956
1163.00,0.0979
1162.00,0.1002
1161.00,0.1023
1160.00,0.1042
1159.00,0.1060
1158.00,0.1074
1157.00,0.1087
1156.00,0.1097
1155.00,0.1105
1154.00,0.1109
1153.00,0.1112
1152.00,0.1112
1151.00,0.1109
1150.00,0.1104
1149.00,0.1096
1148.00,0.1085
1147.00,0.1071
1146.00,0.1055
1145.00,0.1039
1144.00,0.1021
1143.00,0.1003
1142.00,0.0985
1141.00,0.0968
1140.00,0.0953
1139.00,0.0939
1138.00,0.0926
1137.00,0.0917
1136.00,0.0910
1135.00,0.0905
1134.00,0.0902
1133.00,0.0901
1132.00,0.0901
1131.00,0.0903
1130.00,0.0907
1129.00,0.0912
1128.00,0.0917
1127.00,0.0920
1126.00,0.0919
1125.00,0.0915
1124.00,0.0907
1123.00,0.0895
1122.00,0.0879
1121.00,0.0862
1120.00,0.0844
1119.00,0.0825
1118.00,0.0806
1117.00,0.0788
1116.00,0.0770
1115.00,0.0754
1114.00,0.0739
1113.00,0.0727
1112.00,0.0717
1111.00,0.0710
1110.00,0.0706
1109.00,0.0705
1108.00,0.0707
1107.00,0.0712
1106.00,0.0721
1105.00,0.0732
1104.00,0.0746
1103.00,0.0761
1102.00,0.0778
1101.00,0.0796
1100.00,0.0817
1099.00,0.0839
1098.00,0.0862
1097.00,0.0885
1096.00,0.0909
1095.00,0.0933
1094.00,0.0959
1093.00,0.0985
1092.00,0.1014
1091.00,0.1043
1090.00,0.1074
1089.00,0.1105
1088.00,0.1138
1087.00,0.1172
1086.00,0.1207
1085.00,0.1245
1084.00,0.1283
1083.00,0.1322
1082.00,0.1363
1081.00,0.1404
1080.00,0.1445
1079.00,0.1486
1078.00,0.1525
1077.00,0.1562
1076.00,0.1596
1075.00,0.1626
1074.00,0.1650
1073.00,0.1670
1072.00,0.1684
1071.00,0.1693
1070.00,0.1696
1069.00,0.1695
1068.00,0.1691
1067.00,0.1684
1066.00,0.1676
1065.00,0.1669
1064.00,0.1664
1063.00,0.1659
1062.00,0.1654
1061.00,0.1652
1060.00,0.1653
1059.00,0.1656
1058.00,0.1661
1057.00,0.1668
1056.00,0.1679
1055.00,0.1692
1054.00,0.1707
1053.00,0.1725
1052.00,0.1747
1051.00,0.1772
1050.00,0.1799
1049.00,0.1829
1048.00,0.1861
1047.00,0.1894
1046.00,0.1926
1045.00,0.1957
1044.00,0.1987
1043.00,0.2013
1042.00,0.2037
1041.00,0.2059
1040.00,0.2080
1039.00,0.2098
1038.00,0.2113
1037.00,0.2129
1036.00,0.2146
1035.00,0.2162
1034.00,0.2180
1033.00,0.2200
1032.00,0.2223
1031.00,0.2247
1030.00,0.2271
1029.00,0.2295
1028.00,0.2318
1027.00,0.2339
1026.00,0.2357
1025.00,0.2374
1024.00,0.2389
1023.00,0.2401
1022.00,0.2410
1021.00,0.2416
1020.00,0.2419
1019.00,0.2418
1018.00,0.2413
1017.00,0.2405
1016.00,0.2392
1015.00,0.2373
1014.00,0.2350
1013.00,0.2324
1012.00,0.2297
1011.00,0.2267
1010.00,0.2236
1009.00,0.2205
1008.00,0.2172
1007.00,0.2138
1006.00,0.2102
1005.00,0.2066
1004.00,0.2029
1003.00,0.1991
1002.00,0.1952
1001.00,0.1911
1000.00,0.1868
999.00,0.1822
998.00,0.1774
997.00,0.1725
996.00,0.1675
995.00,0.1625
994.00,0.1573
993.00,0.1521
992.00,0.1468
991.00,0.1414
990.00,0.1359
989.00,0.1307
988.00,0.1256
987.00,0.1205
986.00,0.1156
985.00,0.1109
984.00,0.1064
983.00,0.1021
982.00,0.0983
981.00,0.0948
980.00,0.0917
979.00,0.0889
978.00,0.0863
977.00,0.0838
976.00,0.0814
975.00,0.0789
974.00,0.0764
973.00,0.0738
972.00,0.0710
971.00,0.0680
970.00,0.0648
969.00,0.0616
968.00,0.0582
967.00,0.0547
966.00,0.0511
965.00,0.0475
964.00,0.0439
963.00,0.0404
962.00,0.0370
961.00,0.0339
960.00,0.0310
959.00,0.0284
958.00,0.0261
957.00,0.0240
956.00,0.0220
955.00,0.0203
954.00,0.0187
953.00,0.0175
952.00,0.0164
951.00,0.0156
950.00,0.0150
949.00,0.0146
948.00,0.0145
947.00,0.0146
946.00,0.0150
945.00,0.0157
944.00,0.0167
943.00,0.0182
942.00,0.0199
941.00,0.0219
940.00,0.0240
939.00,0.0263
938.00,0.0285
937.00,0.0306
936.00,0.0326
935.00,0.0342
934.00,0.0354
933.00,0.0361
932.00,0.0361
931.00,0.0357
930.00,0.0347
929.00,0.0333
928.00,0.0315
927.00,0.0295
926.00,0.0273
925.00,0.0251
924.00,0.0230
923.00,0.0210
922.00,0.0192
921.00,0.0176
920.00,0.0163
919.00,0.0151
918.00,0.0142
917.00,0.0135
916.00,0.0129
915.00,0.0126
914.00,0.0124
913.00,0.0124
912.00,0.0125
911.00,0.0126
910.00,0.0128
909.00,0.0131
908.00,0.0133
907.00,0.0135
906.00,0.0136
905.00,0.0136
904.00,0.0135
903.00,0.0133
902.00,0.0132
901.00,0.0130
900.00,0.0128
899.00,0.0126
898.00,0.0123
897.00,0.0122
896.00,0.0121
895.00,0.0122
894.00,0.0123
893.00,0.0124
892.00,0.0126
891.00,0.0128
890.00,0.0131
889.00,0.0133
888.00,0.0133
887.00,0.0131
886.00,0.0126
885.00,0.0119
884.00,0.0110
883.00,0.0101
882.00,0.0091
881.00,0.0081
880.00,0.0073
879.00,0.0066
878.00,0.0062
877.00,0.0061
876.00,0.0061
875.00,0.0063
874.00,0.0065
873.00,0.0066
872.00,0.0067
871.00,0.0067
870.00,0.0066
869.00,0.0065
868.00,0.0063
867.00,0.0062
866.00,0.0062
865.00,0.0064
864.00,0.0068
863.00,0.0073
862.00,0.0080
861.00,0.0088
860.00,0.0099
859.00,0.0110
858.00,0.0123
857.00,0.0138
856.00,0.0156
855.00,0.0175
854.00,0.0196
853.00,0.0217
852.00,0.0237
851.00,0.0258
850.00,0.0278
849.00,0.0298
848.00,0.0317
847.00,0.0334
846.00,0.0349
845.00,0.0362
844.00,0.0374
843.00,0.0384
842.00,0.0392
841.00,0.0402
840.00,0.0411
839.00,0.0421
838.00,0.0430
837.00,0.0440
836.00,0.0449
835.00,0.0457
834.00,0.0464
833.00,0.0468
832.00,0.0470
831.00,0.0468
830.00,0.0462
829.00,0.0453
828.00,0.0442
827.00,0.0428
826.00,0.0412
825.00,0.0396
824.00,0.0380
823.00,0.0366
822.00,0.0352
821.00,0.0339
820.00,0.0327
819.00,0.0314
818.00,0.0302
817.00,0.0289
816.00,0.0279
815.00,0.0269
814.00,0.0261
813.00,0.0252
812.00,0.0242
811.00,0.0232
810.00,0.0222
809.00,0.0212
808.00,0.0202
807.00,0.0192
806.00,0.0180
805.00,0.0168
804.00,0.0155
803.00,0.0143
802.00,0.0131
801.00,0.0119
800.00,0.0109
799.00,0.0099
798.00,0.0091
797.00,0.0083
796.00,0.0077
795.00,0.0071
794.00,0.0067
793.00,0.0063
792.00,0.0062
791.00,0.0061
790.00,0.0062
789.00,0.0064
788.00,0.0066
787.00,0.0069
786.00,0.0072
785.00,0.0076
784.00,0.0080
783.00,0.0086
782.00,0.0092
781.00,0.0099
780.00,0.0107
779.00,0.0115
778.00,0.0123
777.00,0.0130
776.00,0.0137
775.00,0.0143
774.00,0.0148
773.00,0.0151
772.00,0.0154
771.00,0.0155
770.00,0.0153
769.00,0.0149
768.00,0.0144
767.00,0.0138
766.00,0.0132
765.00,0.0126
764.00,0.0120
763.00,0.0114
762.00,0.0108
761.00,0.0104
760.00,0.0101
759.00,0.0098
758.00,0.0096
757.00,0.0095
756.00,0.0096
755.00,0.0097
754.00,0.0101
753.00,0.0107
752.00,0.0114
751.00,0.0123
750.00,0.0132
749.00,0.0142
748.00,0.0153
747.00,0.0162
746.00,0.0170
745.00,0.0175
744.00,0.0179
743.00,0.0181
742.00,0.0183
741.00,0.0184
740.00,0.0187
739.00,0.0189
738.00,0.0191
737.00,0.0194
736.00,0.0197
735.00,0.0201
734.00,0.0204
733.00,0.0208
732.00,0.0211
731.00,0.0215
730.00,0.0218
729.00,0.0221
728.00,0.0225
727.00,0.0229
726.00,0.0233
725.00,0.0237
724.00,0.0240
723.00,0.0240
722.00,0.0239
721.00,0.0236
720.00,0.0232
719.00,0.0229
718.00,0.0226
717.00,0.0224
716.00,0.0222
715.00,0.0219
714.00,0.0216
713.00,0.0212
712.00,0.0210
711.00,0.0209
710.00,0.0211
709.00,0.0214
708.00,0.0219
707.00,0.0225
706.00,0.0230
705.00,0.0236
704.00,0.0242
703.00,0.0247
702.00,0.0251
701.00,0.0254
700.00,0.0255
699.00,0.0253
698.00,0.0251
697.00,0.0248
696.00,0.0244
695.00,0.0238
694.00,0.0231
693.00,0.0221
692.00,0.0211
691.00,0.0200
690.00,0.0190
689.00,0.0183
688.00,0.0176
687.00,0.0169
686.00,0.0161
685.00,0.0152
684.00,0.0143
683.00,0.0136
682.00,0.0129
681.00,0.0125
680.00,0.0121
679.00,0.0118
678.00,0.0116
677.00,0.0117
676.00,0.0119
675.00,0.0121
674.00,0.0123
673.00,0.0123
672.00,0.0121
671.00,0.0113
670.00,0.0103
669.00,0.0097
668.00,0.0104
667.00,0.0118
666.00,0.0125
665.00,0.0124
664.00,0.0121
663.00,0.0119
662.00,0.0119
661.00,0.0121
660.00,0.0123
659.00,0.0126
658.00,0.0129
657.00,0.0129
656.00,0.0128
655.00,0.0123
654.00,0.0115
653.00,0.0107
652.00,0.0098
651.00,0.0091
650.00,0.0087
649.00,0.0084
648.00,0.0082
647.00,0.0082
646.00,0.0081
645.00,0.0082
644.00,0.0083
643.00,0.0082
642.00,0.0080
641.00,0.0077
640.00,0.0075
639.00,0.0074
638.00,0.0075
637.00,0.0079
636.00,0.0087
635.00,0.0099
634.00,0.0114
633.00,0.0133
632.00,0.0156
631.00,0.0179
630.00,0.0204
629.00,0.0232
628.00,0.0263
627.00,0.0295
626.00,0.0328
625.00,0.0360
624.00,0.0392
623.00,0.0423
622.00,0.0452
621.00,0.0480
620.00,0.0508
619.00,0.0535
618.00,0.0560
617.00,0.0583
616.00,0.0602
615.00,0.0614
614.00,0.0619
613.00,0.0620
612.00,0.0619
611.00,0.0616
610.00,0.0609
609.00,0.0601
608.00,0.0593
607.00,0.0587
606.00,0.0582
605.00,0.0581
604.00,0.0584
603.00,0.0586
602.00,0.0587
601.00,0.0587
600.00,0.0590
599.00,0.0594
598.00,0.0598
597.00,0.0602
596.00,0.0606
595.00,0.0610
594.00,0.0613
593.00,0.0620
592.00,0.0632
591.00,0.0649
590.00,0.0669
589.00,0.0691
588.00,0.0714
587.00,0.0737
586.00,0.0757
585.00,0.0778
584.00,0.0800
583.00,0.0821
582.00,0.0839
581.00,0.0853
580.00,0.0866
579.00,0.0874
578.00,0.0874
577.00,0.0868
576.00,0.0860
575.00,0.0849
574.00,0.0835
573.00,0.0820
572.00,0.0803
571.00,0.0784
570.00,0.0762
569.00,0.0740
568.00,0.0721
567.00,0.0704
566.00,0.0686
565.00,0.0669
564.00,0.0655
563.00,0.0640
562.00,0.0623
561.00,0.0606
560.00,0.0591
559.00,0.0579
558.00,0.0569
557.00,0.0561
556.00,0.0556
555.00,0.0548
554.00,0.0537
553.00,0.0525
552.00,0.0517
551.00,0.0512
550.00,0.0506
549.00,0.0501
548.00,0.0496
547.00,0.0491
546.00,0.0484
545.00,0.0479
544.00,0.0476
543.00,0.0473
542.00,0.0469
541.00,0.0466
540.00,0.0464
539.00,0.0463
538.00,0.0460
537.00,0.0454
536.00,0.0450
535.00,0.0447
534.00,0.0444
533.00,0.0444
532.00,0.0444
531.00,0.0443
530.00,0.0439
529.00,0.0433
528.00,0.0427
527.00,0.0424
526.00,0.0422
525.00,0.0422
524.00,0.0421
523.00,0.0415
522.00,0.0403
521.00,0.0390
520.00,0.0380
519.00,0.0374
518.00,0.0368
517.00,0.0363
516.00,0.0358
515.00,0.0349
514.00,0.0337
513.00,0.0324
512.00,0.0316
511.00,0.0310
510.00,0.0306
509.00,0.0302
508.00,0.0300
507.00,0.0298
506.00,0.0292
505.00,0.0285
504.00,0.0277
503.00,0.0267
502.00,0.0257
501.00,0.0250
500.00,0.0248
499.00,0.0248
498.00,0.0248
497.00,0.0249
496.00,0.0249
495.00,0.0246
494.00,0.0239
493.00,0.0235
492.00,0.0235
491.00,0.0234
490.00,0.0230
489.00,0.0224
488.00,0.0222
487.00,0.0221
486.00,0.0219
485.00,0.0218
484.00,0.0222
483.00,0.0228
482.00,0.0229
481.00,0.0226
480.00,0.0221
479.00,0.0214
478.00,0.0203
477.00,0.0192
476.00,0.0188
475.00,0.0186
474.00,0.0184
473.00,0.0182
472.00,0.0181
471.00,0.0176
470.00,0.0164
469.00,0.0153
468.00,0.0148
467.00,0.0147
466.00,0.0142
465.00,0.0138
464.00,0.0140
463.00,0.0145
462.00,0.0147
461.00,0.0143
460.00,0.0137
459.00,0.0129
458.00,0.0117
457.00,0.0105
456.00,0.0099
455.00,0.0093
454.00,0.0084
453.00,0.0074
452.00,0.0068
451.00,0.0072
450.00,0.0056
