Created as New Dataset,Sample 006 By Administrator Date Monday, June 09 2025
cm-1,A
4000.00,0.0036
3999.00,0.0036
3998.00,0.0036
3997.00,0.0036
3996.00,0.0036
3995.00,0.0036
3994.00,0.0036
3993.00,0.0036
3992.00,0.0036
3991.00,0.0036
3990.00,0.0036
3989.00,0.0037
3988.00,0.0037
3987.00,0.0038
3986.00,0.0038
3985.00,0.0038
3984.00,0.0037
3983.00,0.0037
3982.00,0.0037
3981.00,0.0037
3980.00,0.0037
3979.00,0.0038
3978.00,0.0038
3977.00,0.0038
3976.00,0.0039
3975.00,0.0039
3974.00,0.0038
3973.00,0.0038
3972.00,0.0038
3971.00,0.0038
3970.00,0.0037
3969.00,0.0037
3968.00,0.0037
3967.00,0.0038
3966.00,0.0038
3965.00,0.0038
3964.00,0.0038
3963.00,0.0039
3962.00,0.0039
3961.00,0.0039
3960.00,0.0039
3959.00,0.0039
3958.00,0.0039
3957.00,0.0039
3956.00,0.0039
3955.00,0.0039
3954.00,0.0039
3953.00,0.0039
3952.00,0.0040
3951.00,0.0040
3950.00,0.0040
3949.00,0.0041
3948.00,0.0041
3947.00,0.0041
3946.00,0.0042
3945.00,0.0042
3944.00,0.0041
3943.00,0.0040
3942.00,0.0039
3941.00,0.0038
3940.00,0.0038
3939.00,0.0039
3938.00,0.0039
3937.00,0.0039
3936.00,0.0040
3935.00,0.0041
3934.00,0.0042
3933.00,0.0043
3932.00,0.0043
3931.00,0.0042
3930.00,0.0041
3929.00,0.0041
3928.00,0.0041
3927.00,0.0041
3926.00,0.0041
3925.00,0.0040
3924.00,0.0040
3923.00,0.0040
3922.00,0.0041
3921.00,0.0043
3920.00,0.0044
3919.00,0.0044
3918.00,0.0044
3917.00,0.0043
3916.00,0.0042
3915.00,0.0041
3914.00,0.0040
3913.00,0.0039
3912.00,0.0039
3911.00,0.0038
3910.00,0.0037
3909.00,0.0038
3908.00,0.0039
3907.00,0.0040
3906.00,0.0042
3905.00,0.0045
3904.00,0.0047
3903.00,0.0049
3902.00,0.0051
3901.00,0.0052
3900.00,0.0051
3899.00,0.0049
3898.00,0.0047
3897.00,0.0046
3896.00,0.0045
3895.00,0.0044
3894.00,0.0044
3893.00,0.0044
3892.00,0.0043
3891.00,0.0042
3890.00,0.0042
3889.00,0.0043
3888.00,0.0045
3887.00,0.0047
3886.00,0.0048
3885.00,0.0047
3884.00,0.0046
3883.00,0.0046
3882.00,0.0047
3881.00,0.0046
3880.00,0.0044
3879.00,0.0043
3878.00,0.0043
3877.00,0.0044
3876.00,0.0045
3875.00,0.0045
3874.00,0.0044
3873.00,0.0044
3872.00,0.0046
3871.00,0.0047
3870.00,0.0048
3869.00,0.0047
3868.00,0.0047
3867.00,0.0048
3866.00,0.0049
3865.00,0.0049
3864.00,0.0048
3863.00,0.0046
3862.00,0.0046
3861.00,0.0045
3860.00,0.0045
3859.00,0.0044
3858.00,0.0043
3857.00,0.0041
3856.00,0.0041
3855.00,0.0043
3854.00,0.0046
3853.00,0.0047
3852.00,0.0048
3851.00,0.0049
3850.00,0.0048
3849.00,0.0048
3848.00,0.0047
3847.00,0.0046
3846.00,0.0046
3845.00,0.0045
3844.00,0.0045
3843.00,0.0045
3842.00,0.0046
3841.00,0.0047
3840.00,0.0048
3839.00,0.0048
3838.00,0.0049
3837.00,0.0049
3836.00,0.0049
3835.00,0.0049
3834.00,0.0049
3833.00,0.0049
3832.00,0.0048
3831.00,0.0047
3830.00,0.0046
3829.00,0.0046
3828.00,0.0045
3827.00,0.0044
3826.00,0.0043
3825.00,0.0042
3824.00,0.0043
3823.00,0.0046
3822.00,0.0048
3821.00,0.0049
3820.00,0.0048
3819.00,0.0048
3818.00,0.0049
3817.00,0.0050
3816.00,0.0049
3815.00,0.0047
3814.00,0.0045
3813.00,0.0044
3812.00,0.0043
3811.00,0.0042
3810.00,0.0041
3809.00,0.0041
3808.00,0.0042
3807.00,0.0043
3806.00,0.0043
3805.00,0.0045
3804.00,0.0047
3803.00,0.0049
3802.00,0.0049
3801.00,0.0049
3800.00,0.0049
3799.00,0.0049
3798.00,0.0049
3797.00,0.0048
3796.00,0.0046
3795.00,0.0045
3794.00,0.0043
3793.00,0.0043
3792.00,0.0042
3791.00,0.0041
3790.00,0.0041
3789.00,0.0041
3788.00,0.0041
3787.00,0.0041
3786.00,0.0041
3785.00,0.0041
3784.00,0.0042
3783.00,0.0043
3782.00,0.0044
3781.00,0.0045
3780.00,0.0044
3779.00,0.0043
3778.00,0.0043
3777.00,0.0042
3776.00,0.0043
3775.00,0.0043
3774.00,0.0043
3773.00,0.0043
3772.00,0.0044
3771.00,0.0045
3770.00,0.0046
3769.00,0.0047
3768.00,0.0048
3767.00,0.0049
3766.00,0.0050
3765.00,0.0050
3764.00,0.0049
3763.00,0.0050
3762.00,0.0051
3761.00,0.0052
3760.00,0.0052
3759.00,0.0052
3758.00,0.0052
3757.00,0.0053
3756.00,0.0054
3755.00,0.0055
3754.00,0.0057
3753.00,0.0058
3752.00,0.0060
3751.00,0.0061
3750.00,0.0064
3749.00,0.0066
3748.00,0.0067
3747.00,0.0068
3746.00,0.0069
3745.00,0.0070
3744.00,0.0069
3743.00,0.0068
3742.00,0.0066
3741.00,0.0066
3740.00,0.0066
3739.00,0.0067
3738.00,0.0070
3737.00,0.0072
3736.00,0.0072
3735.00,0.0070
3734.00,0.0069
3733.00,0.0069
3732.00,0.0068
3731.00,0.0067
3730.00,0.0067
3729.00,0.0066
3728.00,0.0067
3727.00,0.0067
3726.00,0.0066
3725.00,0.0065
3724.00,0.0065
3723.00,0.0065
3722.00,0.0065
3721.00,0.0065
3720.00,0.0065
3719.00,0.0064
3718.00,0.0064
3717.00,0.0064
3716.00,0.0065
3715.00,0.0067
3714.00,0.0069
3713.00,0.0071
3712.00,0.0073
3711.00,0.0074
3710.00,0.0075
3709.00,0.0076
3708.00,0.0077
3707.00,0.0077
3706.00,0.0078
3705.00,0.0078
3704.00,0.0078
3703.00,0.0079
3702.00,0.0079
3701.00,0.0079
3700.00,0.0080
3699.00,0.0081
3698.00,0.0082
3697.00,0.0084
3696.00,0.0085
3695.00,0.0087
3694.00,0.0090
3693.00,0.0092
3692.00,0.0094
3691.00,0.0096
3690.00,0.0098
3689.00,0.0102
3688.00,0.0106
3687.00,0.0110
3686.00,0.0112
3685.00,0.0113
3684.00,0.0115
3683.00,0.0116
3682.00,0.0118
3681.00,0.0120
3680.00,0.0123
3679.00,0.0125
3678.00,0.0130
3677.00,0.0136
3676.00,0.0143
3675.00,0.0149
3674.00,0.0154
3673.00,0.0160
3672.00,0.0166
3671.00,0.0170
3670.00,0.0173
3669.00,0.0175
3668.00,0.0177
3667.00,0.0180
3666.00,0.0184
3665.00,0.0187
3664.00,0.0189
3663.00,0.0192
3662.00,0.0196
3661.00,0.0200
3660.00,0.0204
3659.00,0.0210
3658.00,0.0217
3657.00,0.0225
3656.00,0.0233
3655.00,0.0240
3654.00,0.0246
3653.00,0.0253
3652.00,0.0261
3651.00,0.0270
3650.00,0.0280
3649.00,0.0290
3648.00,0.0300
3647.00,0.0309
3646.00,0.0315
3645.00,0.0320
3644.00,0.0324
3643.00,0.0328
3642.00,0.0332
3641.00,0.0336
3640.00,0.0341
3639.00,0.0348
3638.00,0.0355
3637.00,0.0362
3636.00,0.0369
3635.00,0.0377
3634.00,0.0385
3633.00,0.0391
3632.00,0.0399
3631.00,0.0408
3630.00,0.0419
3629.00,0.0431
3628.00,0.0443
3627.00,0.0454
3626.00,0.0462
3625.00,0.0469
3624.00,0.0474
3623.00,0.0479
3622.00,0.0484
3621.00,0.0491
3620.00,0.0498
3619.00,0.0507
3618.00,0.0517
3617.00,0.0528
3616.00,0.0537
3615.00,0.0545
3614.00,0.0552
3613.00,0.0559
3612.00,0.0567
3611.00,0.0575
3610.00,0.0584
3609.00,0.0593
3608.00,0.0600
3607.00,0.0607
3606.00,0.0614
3605.00,0.0620
3604.00,0.0627
3603.00,0.0633
3602.00,0.0639
3601.00,0.0646
3600.00,0.0654
3599.00,0.0662
3598.00,0.0671
3597.00,0.0680
3596.00,0.0689
3595.00,0.0698
3594.00,0.0706
3593.00,0.0714
3592.00,0.0722
3591.00,0.0729
3590.00,0.0738
3589.00,0.0748
3588.00,0.0758
3587.00,0.0768
3586.00,0.0778
3585.00,0.0788
3584.00,0.0796
3583.00,0.0803
3582.00,0.0809
3581.00,0.0814
3580.00,0.0820
3579.00,0.0827
3578.00,0.0835
3577.00,0.0844
3576.00,0.0853
3575.00,0.0862
3574.00,0.0871
3573.00,0.0880
3572.00,0.0890
3571.00,0.0899
3570.00,0.0909
3569.00,0.0920
3568.00,0.0932
3567.00,0.0943
3566.00,0.0955
3565.00,0.0967
3564.00,0.0978
3563.00,0.0987
3562.00,0.0996
3561.00,0.1003
3560.00,0.1011
3559.00,0.1019
3558.00,0.1028
3557.00,0.1037
3556.00,0.1046
3555.00,0.1055
3554.00,0.1065
3553.00,0.1075
3552.00,0.1086
3551.00,0.1097
3550.00,0.1108
3549.00,0.1119
3548.00,0.1129
3547.00,0.1139
3546.00,0.1149
3545.00,0.1159
3544.00,0.1168
3543.00,0.1177
3542.00,0.1185
3541.00,0.1193
3540.00,0.1200
3539.00,0.1208
3538.00,0.1215
3537.00,0.1223
3536.00,0.1231
3535.00,0.1239
3534.00,0.1247
3533.00,0.1255
3532.00,0.1262
3531.00,0.1269
3530.00,0.1276
3529.00,0.1284
3528.00,0.1293
3527.00,0.1302
3526.00,0.1311
3525.00,0.1320
3524.00,0.1327
3523.00,0.1334
3522.00,0.1340
3521.00,0.1346
3520.00,0.1352
3519.00,0.1358
3518.00,0.1365
3517.00,0.1372
3516.00,0.1379
3515.00,0.1386
3514.00,0.1394
3513.00,0.1401
3512.00,0.1407
3511.00,0.1414
3510.00,0.1421
3509.00,0.1429
3508.00,0.1438
3507.00,0.1446
3506.00,0.1454
3505.00,0.1462
3504.00,0.1470
3503.00,0.1478
3502.00,0.1486
3501.00,0.1494
3500.00,0.1501
3499.00,0.1509
3498.00,0.1516
3497.00,0.1523
3496.00,0.1530
3495.00,0.1538
3494.00,0.1545
3493.00,0.1553
3492.00,0.1560
3491.00,0.1568
3490.00,0.1576
3489.00,0.1584
3488.00,0.1592
3487.00,0.1599
3486.00,0.1607
3485.00,0.1615
3484.00,0.1623
3483.00,0.1631
3482.00,0.1639
3481.00,0.1647
3480.00,0.1655
3479.00,0.1663
3478.00,0.1670
3477.00,0.1676
3476.00,0.1683
3475.00,0.1691
3474.00,0.1699
3473.00,0.1707
3472.00,0.1716
3471.00,0.1725
3470.00,0.1733
3469.00,0.1741
3468.00,0.1749
3467.00,0.1756
3466.00,0.1764
3465.00,0.1771
3464.00,0.1778
3463.00,0.1785
3462.00,0.1792
3461.00,0.1800
3460.00,0.1808
3459.00,0.1816
3458.00,0.1824
3457.00,0.1832
3456.00,0.1840
3455.00,0.1847
3454.00,0.1854
3453.00,0.1861
3452.00,0.1869
3451.00,0.1876
3450.00,0.1883
3449.00,0.1891
3448.00,0.1899
3447.00,0.1906
3446.00,0.1914
3445.00,0.1923
3444.00,0.1931
3443.00,0.1939
3442.00,0.1947
3441.00,0.1955
3440.00,0.1963
3439.00,0.1972
3438.00,0.1980
3437.00,0.1989
3436.00,0.1996
3435.00,0.2003
3434.00,0.2010
3433.00,0.2017
3432.00,0.2025
3431.00,0.2033
3430.00,0.2042
3429.00,0.2050
3428.00,0.2058
3427.00,0.2065
3426.00,0.2073
3425.00,0.2080
3424.00,0.2088
3423.00,0.2096
3422.00,0.2104
3421.00,0.2112
3420.00,0.2121
3419.00,0.2129
3418.00,0.2137
3417.00,0.2145
3416.00,0.2153
3415.00,0.2161
3414.00,0.2170
3413.00,0.2177
3412.00,0.2185
3411.00,0.2192
3410.00,0.2198
3409.00,0.2205
3408.00,0.2212
3407.00,0.2218
3406.00,0.2225
3405.00,0.2231
3404.00,0.2238
3403.00,0.2245
3402.00,0.2250
3401.00,0.2255
3400.00,0.2258
3399.00,0.2261
3398.00,0.2265
3397.00,0.2269
3396.00,0.2273
3395.00,0.2277
3394.00,0.2281
3393.00,0.2285
3392.00,0.2288
3391.00,0.2290
3390.00,0.2292
3389.00,0.2293
3388.00,0.2294
3387.00,0.2295
3386.00,0.2296
3385.00,0.2298
3384.00,0.2300
3383.00,0.2303
3382.00,0.2305
3381.00,0.2307
3380.00,0.2308
3379.00,0.2309
3378.00,0.2311
3377.00,0.2312
3376.00,0.2313
3375.00,0.2313
3374.00,0.2314
3373.00,0.2315
3372.00,0.2316
3371.00,0.2318
3370.00,0.2320
3369.00,0.2321
3368.00,0.2321
3367.00,0.2320
3366.00,0.2320
3365.00,0.2320
3364.00,0.2320
3363.00,0.2320
3362.00,0.2321
3361.00,0.2321
3360.00,0.2321
3359.00,0.2321
3358.00,0.2321
3357.00,0.2320
3356.00,0.2320
3355.00,0.2320
3354.00,0.2320
3353.00,0.2320
3352.00,0.2321
3351.00,0.2320
3350.00,0.2319
3349.00,0.2318
3348.00,0.2317
3347.00,0.2316
3346.00,0.2315
3345.00,0.2315
3344.00,0.2315
3343.00,0.2315
3342.00,0.2314
3341.00,0.2313
3340.00,0.2312
3339.00,0.2311
3338.00,0.2309
3337.00,0.2308
3336.00,0.2307
3335.00,0.2305
3334.00,0.2304
3333.00,0.2303
3332.00,0.2302
3331.00,0.2300
3330.00,0.2298
3329.00,0.2297
3328.00,0.2295
3327.00,0.2295
3326.00,0.2294
3325.00,0.2293
3324.00,0.2292
3323.00,0.2291
3322.00,0.2290
3321.00,0.2288
3320.00,0.2287
3319.00,0.2286
3318.00,0.2284
3317.00,0.2283
3316.00,0.2281
3315.00,0.2280
3314.00,0.2279
3313.00,0.2279
3312.00,0.2278
3311.00,0.2277
3310.00,0.2276
3309.00,0.2275
3308.00,0.2273
3307.00,0.2272
3306.00,0.2271
3305.00,0.2270
3304.00,0.2270
3303.00,0.2269
3302.00,0.2268
3301.00,0.2267
3300.00,0.2265
3299.00,0.2264
3298.00,0.2263
3297.00,0.2261
3296.00,0.2260
3295.00,0.2259
3294.00,0.2258
3293.00,0.2257
3292.00,0.2256
3291.00,0.2255
3290.00,0.2254
3289.00,0.2253
3288.00,0.2251
3287.00,0.2250
3286.00,0.2249
3285.00,0.2247
3284.00,0.2245
3283.00,0.2243
3282.00,0.2241
3281.00,0.2239
3280.00,0.2236
3279.00,0.2234
3278.00,0.2232
3277.00,0.2230
3276.00,0.2227
3275.00,0.2225
3274.00,0.2222
3273.00,0.2219
3272.00,0.2216
3271.00,0.2212
3270.00,0.2209
3269.00,0.2206
3268.00,0.2203
3267.00,0.2199
3266.00,0.2195
3265.00,0.2192
3264.00,0.2188
3263.00,0.2183
3262.00,0.2179
3261.00,0.2174
3260.00,0.2170
3259.00,0.2165
3258.00,0.2160
3257.00,0.2155
3256.00,0.2151
3255.00,0.2146
3254.00,0.2142
3253.00,0.2137
3252.00,0.2132
3251.00,0.2128
3250.00,0.2123
3249.00,0.2118
3248.00,0.2113
3247.00,0.2108
3246.00,0.2102
3245.00,0.2097
3244.00,0.2091
3243.00,0.2086
3242.00,0.2081
3241.00,0.2076
3240.00,0.2070
3239.00,0.2064
3238.00,0.2058
3237.00,0.2052
3236.00,0.2046
3235.00,0.2040
3234.00,0.2034
3233.00,0.2029
3232.00,0.2023
3231.00,0.2017
3230.00,0.2010
3229.00,0.2004
3228.00,0.1998
3227.00,0.1992
3226.00,0.1986
3225.00,0.1979
3224.00,0.1973
3223.00,0.1967
3222.00,0.1961
3221.00,0.1954
3220.00,0.1947
3219.00,0.1941
3218.00,0.1934
3217.00,0.1927
3216.00,0.1921
3215.00,0.1914
3214.00,0.1907
3213.00,0.1900
3212.00,0.1893
3211.00,0.1886
3210.00,0.1878
3209.00,0.1871
3208.00,0.1864
3207.00,0.1857
3206.00,0.1849
3205.00,0.1842
3204.00,0.1834
3203.00,0.1826
3202.00,0.1818
3201.00,0.1810
3200.00,0.1803
3199.00,0.1795
3198.00,0.1788
3197.00,0.1780
3196.00,0.1772
3195.00,0.1765
3194.00,0.1757
3193.00,0.1749
3192.00,0.1741
3191.00,0.1732
3190.00,0.1723
3189.00,0.1715
3188.00,0.1706
3187.00,0.1698
3186.00,0.1689
3185.00,0.1681
3184.00,0.1673
3183.00,0.1664
3182.00,0.1656
3181.00,0.1647
3180.00,0.1639
3179.00,0.1630
3178.00,0.1621
3177.00,0.1613
3176.00,0.1604
3175.00,0.1594
3174.00,0.1585
3173.00,0.1576
3172.00,0.1567
3171.00,0.1558
3170.00,0.1550
3169.00,0.1542
3168.00,0.1533
3167.00,0.1524
3166.00,0.1515
3165.00,0.1505
3164.00,0.1496
3163.00,0.1487
3162.00,0.1478
3161.00,0.1469
3160.00,0.1460
3159.00,0.1452
3158.00,0.1443
3157.00,0.1435
3156.00,0.1426
3155.00,0.1418
3154.00,0.1409
3153.00,0.1401
3152.00,0.1393
3151.00,0.1384
3150.00,0.1375
3149.00,0.1367
3148.00,0.1358
3147.00,0.1350
3146.00,0.1341
3145.00,0.1333
3144.00,0.1325
3143.00,0.1316
3142.00,0.1308
3141.00,0.1300
3140.00,0.1292
3139.00,0.1284
3138.00,0.1276
3137.00,0.1268
3136.00,0.1260
3135.00,0.1252
3134.00,0.1245
3133.00,0.1237
3132.00,0.1230
3131.00,0.1223
3130.00,0.1216
3129.00,0.1208
3128.00,0.1201
3127.00,0.1193
3126.00,0.1186
3125.00,0.1179
3124.00,0.1172
3123.00,0.1165
3122.00,0.1158
3121.00,0.1151
3120.00,0.1144
3119.00,0.1138
3118.00,0.1131
3117.00,0.1125
3116.00,0.1118
3115.00,0.1112
3114.00,0.1106
3113.00,0.1100
3112.00,0.1094
3111.00,0.1088
3110.00,0.1082
3109.00,0.1076
3108.00,0.1070
3107.00,0.1065
3106.00,0.1060
3105.00,0.1054
3104.00,0.1049
3103.00,0.1044
3102.00,0.1038
3101.00,0.1033
3100.00,0.1028
3099.00,0.1023
3098.00,0.1018
3097.00,0.1014
3096.00,0.1009
3095.00,0.1004
3094.00,0.0998
3093.00,0.0993
3092.00,0.0987
3091.00,0.0981
3090.00,0.0976
3089.00,0.0971
3088.00,0.0967
3087.00,0.0962
3086.00,0.0957
3085.00,0.0953
3084.00,0.0948
3083.00,0.0944
3082.00,0.0939
3081.00,0.0935
3080.00,0.0931
3079.00,0.0927
3078.00,0.0923
3077.00,0.0919
3076.00,0.0914
3075.00,0.0910
3074.00,0.0905
3073.00,0.0900
3072.00,0.0895
3071.00,0.0890
3070.00,0.0885
3069.00,0.0880
3068.00,0.0876
3067.00,0.0871
3066.00,0.0867
3065.00,0.0862
3064.00,0.0858
3063.00,0.0853
3062.00,0.0847
3061.00,0.0842
3060.00,0.0836
3059.00,0.0831
3058.00,0.0825
3057.00,0.0820
3056.00,0.0815
3055.00,0.0809
3054.00,0.0804
3053.00,0.0798
3052.00,0.0793
3051.00,0.0788
3050.00,0.0784
3049.00,0.0779
3048.00,0.0773
3047.00,0.0768
3046.00,0.0762
3045.00,0.0757
3044.00,0.0752
3043.00,0.0747
3042.00,0.0742
3041.00,0.0737
3040.00,0.0732
3039.00,0.0727
3038.00,0.0722
3037.00,0.0716
3036.00,0.0711
3035.00,0.0707
3034.00,0.0702
3033.00,0.0698
3032.00,0.0694
3031.00,0.0689
3030.00,0.0685
3029.00,0.0680
3028.00,0.0676
3027.00,0.0671
3026.00,0.0666
3025.00,0.0662
3024.00,0.0657
3023.00,0.0653
3022.00,0.0649
3021.00,0.0645
3020.00,0.0641
3019.00,0.0637
3018.00,0.0633
3017.00,0.0630
3016.00,0.0626
3015.00,0.0622
3014.00,0.0619
3013.00,0.0615
3012.00,0.0612
3011.00,0.0609
3010.00,0.0606
3009.00,0.0603
3008.00,0.0600
3007.00,0.0597
3006.00,0.0594
3005.00,0.0591
3004.00,0.0588
3003.00,0.0585
3002.00,0.0582
3001.00,0.0579
3000.00,0.0577
2999.00,0.0574
2998.00,0.0572
2997.00,0.0570
2996.00,0.0568
2995.00,0.0567
2994.00,0.0566
2993.00,0.0565
2992.00,0.0564
2991.00,0.0564
2990.00,0.0563
2989.00,0.0563
2988.00,0.0563
2987.00,0.0563
2986.00,0.0564
2985.00,0.0564
2984.00,0.0564
2983.00,0.0565
2982.00,0.0566
2981.00,0.0567
2980.00,0.0568
2979.00,0.0569
2978.00,0.0570
2977.00,0.0571
2976.00,0.0572
2975.00,0.0574
2974.00,0.0575
2973.00,0.0577
2972.00,0.0579
2971.00,0.0580
2970.00,0.0581
2969.00,0.0582
2968.00,0.0583
2967.00,0.0584
2966.00,0.0585
2965.00,0.0586
2964.00,0.0587
2963.00,0.0587
2962.00,0.0587
2961.00,0.0587
2960.00,0.0586
2959.00,0.0585
2958.00,0.0583
2957.00,0.0581
2956.00,0.0579
2955.00,0.0576
2954.00,0.0573
2953.00,0.0570
2952.00,0.0568
2951.00,0.0566
2950.00,0.0564
2949.00,0.0561
2948.00,0.0560
2947.00,0.0558
2946.00,0.0557
2945.00,0.0557
2944.00,0.0558
2943.00,0.0559
2942.00,0.0560
2941.00,0.0562
2940.00,0.0563
2939.00,0.0564
2938.00,0.0565
2937.00,0.0566
2936.00,0.0567
2935.00,0.0567
2934.00,0.0568
2933.00,0.0568
2932.00,0.0568
2931.00,0.0568
2930.00,0.0568
2929.00,0.0567
2928.00,0.0567
2927.00,0.0566
2926.00,0.0565
2925.00,0.0563
2924.00,0.0561
2923.00,0.0559
2922.00,0.0556
2921.00,0.0552
2920.00,0.0548
2919.00,0.0543
2918.00,0.0538
2917.00,0.0532
2916.00,0.0525
2915.00,0.0519
2914.00,0.0512
2913.00,0.0506
2912.00,0.0500
2911.00,0.0494
2910.00,0.0488
2909.00,0.0483
2908.00,0.0478
2907.00,0.0474
2906.00,0.0470
2905.00,0.0466
2904.00,0.0462
2903.00,0.0458
2902.00,0.0454
2901.00,0.0451
2900.00,0.0447
2899.00,0.0444
2898.00,0.0440
2897.00,0.0437
2896.00,0.0433
2895.00,0.0430
2894.00,0.0427
2893.00,0.0424
2892.00,0.0422
2891.00,0.0419
2890.00,0.0417
2889.00,0.0414
2888.00,0.0412
2887.00,0.0409
2886.00,0.0407
2885.00,0.0405
2884.00,0.0404
2883.00,0.0403
2882.00,0.0401
2881.00,0.0400
2880.00,0.0399
2879.00,0.0398
2878.00,0.0397
2877.00,0.0395
2876.00,0.0393
2875.00,0.0391
2874.00,0.0389
2873.00,0.0387
2872.00,0.0384
2871.00,0.0382
2870.00,0.0379
2869.00,0.0376
2868.00,0.0372
2867.00,0.0369
2866.00,0.0365
2865.00,0.0362
2864.00,0.0360
2863.00,0.0358
2862.00,0.0356
2861.00,0.0355
2860.00,0.0354
2859.00,0.0354
2858.00,0.0354
2857.00,0.0353
2856.00,0.0353
2855.00,0.0352
2854.00,0.0352
2853.00,0.0351
2852.00,0.0349
2851.00,0.0346
2850.00,0.0342
2849.00,0.0337
2848.00,0.0332
2847.00,0.0326
2846.00,0.0320
2845.00,0.0314
2844.00,0.0309
2843.00,0.0304
2842.00,0.0299
2841.00,0.0295
2840.00,0.0291
2839.00,0.0287
2838.00,0.0284
2837.00,0.0282
2836.00,0.0280
2835.00,0.0278
2834.00,0.0276
2833.00,0.0273
2832.00,0.0271
2831.00,0.0269
2830.00,0.0268
2829.00,0.0266
2828.00,0.0265
2827.00,0.0263
2826.00,0.0261
2825.00,0.0260
2824.00,0.0258
2823.00,0.0256
2822.00,0.0255
2821.00,0.0253
2820.00,0.0252
2819.00,0.0251
2818.00,0.0249
2817.00,0.0247
2816.00,0.0246
2815.00,0.0244
2814.00,0.0243
2813.00,0.0241
2812.00,0.0240
2811.00,0.0238
2810.00,0.0237
2809.00,0.0236
2808.00,0.0234
2807.00,0.0233
2806.00,0.0231
2805.00,0.0230
2804.00,0.0228
2803.00,0.0227
2802.00,0.0226
2801.00,0.0224
2800.00,0.0223
2799.00,0.0221
2798.00,0.0220
2797.00,0.0219
2796.00,0.0219
2795.00,0.0217
2794.00,0.0216
2793.00,0.0214
2792.00,0.0213
2791.00,0.0212
2790.00,0.0211
2789.00,0.0211
2788.00,0.0210
2787.00,0.0209
2786.00,0.0208
2785.00,0.0207
2784.00,0.0206
2783.00,0.0205
2782.00,0.0204
2781.00,0.0203
2780.00,0.0202
2779.00,0.0200
2778.00,0.0199
2777.00,0.0198
2776.00,0.0197
2775.00,0.0196
2774.00,0.0195
2773.00,0.0194
2772.00,0.0193
2771.00,0.0192
2770.00,0.0191
2769.00,0.0191
2768.00,0.0190
2767.00,0.0189
2766.00,0.0189
2765.00,0.0188
2764.00,0.0187
2763.00,0.0186
2762.00,0.0185
2761.00,0.0185
2760.00,0.0184
2759.00,0.0183
2758.00,0.0182
2757.00,0.0181
2756.00,0.0180
2755.00,0.0179
2754.00,0.0178
2753.00,0.0178
2752.00,0.0177
2751.00,0.0176
2750.00,0.0176
2749.00,0.0175
2748.00,0.0175
2747.00,0.0174
2746.00,0.0173
2745.00,0.0172
2744.00,0.0171
2743.00,0.0170
2742.00,0.0170
2741.00,0.0169
2740.00,0.0168
2739.00,0.0167
2738.00,0.0167
2737.00,0.0166
2736.00,0.0165
2735.00,0.0165
2734.00,0.0164
2733.00,0.0164
2732.00,0.0163
2731.00,0.0162
2730.00,0.0162
2729.00,0.0161
2728.00,0.0160
2727.00,0.0159
2726.00,0.0158
2725.00,0.0158
2724.00,0.0157
2723.00,0.0156
2722.00,0.0155
2721.00,0.0155
2720.00,0.0154
2719.00,0.0154
2718.00,0.0153
2717.00,0.0153
2716.00,0.0152
2715.00,0.0151
2714.00,0.0150
2713.00,0.0150
2712.00,0.0149
2711.00,0.0148
2710.00,0.0148
2709.00,0.0147
2708.00,0.0146
2707.00,0.0146
2706.00,0.0145
2705.00,0.0145
2704.00,0.0145
2703.00,0.0144
2702.00,0.0144
2701.00,0.0143
2700.00,0.0142
2699.00,0.0142
2698.00,0.0141
2697.00,0.0141
2696.00,0.0140
2695.00,0.0140
2694.00,0.0140
2693.00,0.0139
2692.00,0.0138
2691.00,0.0138
2690.00,0.0138
2689.00,0.0137
2688.00,0.0137
2687.00,0.0136
2686.00,0.0135
2685.00,0.0135
2684.00,0.0135
2683.00,0.0134
2682.00,0.0134
2681.00,0.0133
2680.00,0.0133
2679.00,0.0132
2678.00,0.0132
2677.00,0.0131
2676.00,0.0131
2675.00,0.0130
2674.00,0.0130
2673.00,0.0129
2672.00,0.0129
2671.00,0.0129
2670.00,0.0128
2669.00,0.0128
2668.00,0.0128
2667.00,0.0128
2666.00,0.0128
2665.00,0.0128
2664.00,0.0128
2663.00,0.0128
2662.00,0.0128
2661.00,0.0128
2660.00,0.0128
2659.00,0.0128
2658.00,0.0128
2657.00,0.0128
2656.00,0.0127
2655.00,0.0127
2654.00,0.0126
2653.00,0.0126
2652.00,0.0125
2651.00,0.0125
2650.00,0.0125
2649.00,0.0124
2648.00,0.0124
2647.00,0.0123
2646.00,0.0123
2645.00,0.0122
2644.00,0.0122
2643.00,0.0121
2642.00,0.0121
2641.00,0.0121
2640.00,0.0120
2639.00,0.0120
2638.00,0.0119
2637.00,0.0118
2636.00,0.0118
2635.00,0.0117
2634.00,0.0116
2633.00,0.0116
2632.00,0.0115
2631.00,0.0114
2630.00,0.0114
2629.00,0.0114
2628.00,0.0114
2627.00,0.0113
2626.00,0.0113
2625.00,0.0112
2624.00,0.0111
2623.00,0.0111
2622.00,0.0110
2621.00,0.0110
2620.00,0.0110
2619.00,0.0109
2618.00,0.0109
2617.00,0.0109
2616.00,0.0108
2615.00,0.0107
2614.00,0.0107
2613.00,0.0107
2612.00,0.0106
2611.00,0.0106
2610.00,0.0105
2609.00,0.0104
2608.00,0.0103
2607.00,0.0103
2606.00,0.0103
2605.00,0.0103
2604.00,0.0103
2603.00,0.0103
2602.00,0.0102
2601.00,0.0101
2600.00,0.0101
2599.00,0.0101
2598.00,0.0100
2597.00,0.0100
2596.00,0.0099
2595.00,0.0099
2594.00,0.0099
2593.00,0.0098
2592.00,0.0098
2591.00,0.0097
2590.00,0.0096
2589.00,0.0095
2588.00,0.0095
2587.00,0.0095
2586.00,0.0094
2585.00,0.0094
2584.00,0.0094
2583.00,0.0094
2582.00,0.0094
2581.00,0.0094
2580.00,0.0094
2579.00,0.0094
2578.00,0.0094
2577.00,0.0094
2576.00,0.0093
2575.00,0.0093
2574.00,0.0093
2573.00,0.0092
2572.00,0.0092
2571.00,0.0091
2570.00,0.0090
2569.00,0.0090
2568.00,0.0090
2567.00,0.0089
2566.00,0.0089
2565.00,0.0088
2564.00,0.0088
2563.00,0.0088
2562.00,0.0087
2561.00,0.0087
2560.00,0.0088
2559.00,0.0088
2558.00,0.0088
2557.00,0.0087
2556.00,0.0087
2555.00,0.0087
2554.00,0.0087
2553.00,0.0087
2552.00,0.0088
2551.00,0.0088
2550.00,0.0087
2549.00,0.0087
2548.00,0.0087
2547.00,0.0086
2546.00,0.0086
2545.00,0.0086
2544.00,0.0086
2543.00,0.0085
2542.00,0.0085
2541.00,0.0085
2540.00,0.0085
2539.00,0.0085
2538.00,0.0084
2537.00,0.0084
2536.00,0.0083
2535.00,0.0083
2534.00,0.0084
2533.00,0.0084
2532.00,0.0084
2531.00,0.0084
2530.00,0.0083
2529.00,0.0083
2528.00,0.0084
2527.00,0.0084
2526.00,0.0085
2525.00,0.0084
2524.00,0.0084
2523.00,0.0083
2522.00,0.0083
2521.00,0.0083
2520.00,0.0083
2519.00,0.0083
2518.00,0.0083
2517.00,0.0083
2516.00,0.0083
2515.00,0.0084
2514.00,0.0083
2513.00,0.0083
2512.00,0.0083
2511.00,0.0082
2510.00,0.0082
2509.00,0.0082
2508.00,0.0082
2507.00,0.0082
2506.00,0.0082
2505.00,0.0082
2504.00,0.0082
2503.00,0.0082
2502.00,0.0082
2501.00,0.0081
2500.00,0.0081
2499.00,0.0081
2498.00,0.0080
2497.00,0.0081
2496.00,0.0081
2495.00,0.0082
2494.00,0.0082
2493.00,0.0081
2492.00,0.0081
2491.00,0.0081
2490.00,0.0081
2489.00,0.0081
2488.00,0.0081
2487.00,0.0081
2486.00,0.0080
2485.00,0.0080
2484.00,0.0080
2483.00,0.0080
2482.00,0.0080
2481.00,0.0080
2480.00,0.0079
2479.00,0.0079
2478.00,0.0078
2477.00,0.0078
2476.00,0.0078
2475.00,0.0078
2474.00,0.0079
2473.00,0.0079
2472.00,0.0079
2471.00,0.0079
2470.00,0.0078
2469.00,0.0078
2468.00,0.0078
2467.00,0.0078
2466.00,0.0078
2465.00,0.0078
2464.00,0.0078
2463.00,0.0078
2462.00,0.0078
2461.00,0.0079
2460.00,0.0079
2459.00,0.0079
2458.00,0.0080
2457.00,0.0080
2456.00,0.0081
2455.00,0.0081
2454.00,0.0081
2453.00,0.0080
2452.00,0.0080
2451.00,0.0080
2450.00,0.0079
2449.00,0.0079
2448.00,0.0079
2447.00,0.0079
2446.00,0.0079
2445.00,0.0079
2444.00,0.0079
2443.00,0.0079
2442.00,0.0079
2441.00,0.0079
2440.00,0.0079
2439.00,0.0079
2438.00,0.0078
2437.00,0.0078
2436.00,0.0078
2435.00,0.0077
2434.00,0.0077
2433.00,0.0078
2432.00,0.0078
2431.00,0.0078
2430.00,0.0078
2429.00,0.0078
2428.00,0.0078
2427.00,0.0078
2426.00,0.0078
2425.00,0.0079
2424.00,0.0078
2423.00,0.0078
2422.00,0.0078
2421.00,0.0077
2420.00,0.0077
2419.00,0.0077
2418.00,0.0077
2417.00,0.0076
2416.00,0.0076
2415.00,0.0076
2414.00,0.0076
2413.00,0.0076
2412.00,0.0076
2411.00,0.0077
2410.00,0.0078
2409.00,0.0078
2408.00,0.0078
2407.00,0.0077
2406.00,0.0077
2405.00,0.0076
2404.00,0.0076
2403.00,0.0077
2402.00,0.0077
2401.00,0.0077
2400.00,0.0077
2399.00,0.0078
2398.00,0.0077
2397.00,0.0077
2396.00,0.0077
2395.00,0.0078
2394.00,0.0078
2393.00,0.0078
2392.00,0.0079
2391.00,0.0079
2390.00,0.0079
2389.00,0.0079
2388.00,0.0078
2387.00,0.0078
2386.00,0.0078
2385.00,0.0078
2384.00,0.0077
2383.00,0.0077
2382.00,0.0076
2381.00,0.0075
2380.00,0.0075
2379.00,0.0074
2378.00,0.0074
2377.00,0.0074
2376.00,0.0076
2375.00,0.0077
2374.00,0.0078
2373.00,0.0079
2372.00,0.0079
2371.00,0.0079
2370.00,0.0078
2369.00,0.0078
2368.00,0.0077
2367.00,0.0077
2366.00,0.0077
2365.00,0.0078
2364.00,0.0079
2363.00,0.0080
2362.00,0.0082
2361.00,0.0083
2360.00,0.0083
2359.00,0.0083
2358.00,0.0082
2357.00,0.0082
2356.00,0.0082
2355.00,0.0083
2354.00,0.0083
2353.00,0.0083
2352.00,0.0083
2351.00,0.0082
2350.00,0.0082
2349.00,0.0084
2348.00,0.0086
2347.00,0.0087
2346.00,0.0088
2345.00,0.0087
2344.00,0.0086
2343.00,0.0087
2342.00,0.0089
2341.00,0.0090
2340.00,0.0090
2339.00,0.0089
2338.00,0.0089
2337.00,0.0089
2336.00,0.0089
2335.00,0.0089
2334.00,0.0089
2333.00,0.0088
2332.00,0.0087
2331.00,0.0086
2330.00,0.0087
2329.00,0.0088
2328.00,0.0091
2327.00,0.0096
2326.00,0.0101
2325.00,0.0105
2324.00,0.0107
2323.00,0.0105
2322.00,0.0103
2321.00,0.0100
2320.00,0.0099
2319.00,0.0099
2318.00,0.0100
2317.00,0.0100
2316.00,0.0100
2315.00,0.0100
2314.00,0.0099
2313.00,0.0098
2312.00,0.0097
2311.00,0.0097
2310.00,0.0097
2309.00,0.0097
2308.00,0.0096
2307.00,0.0095
2306.00,0.0095
2305.00,0.0095
2304.00,0.0096
2303.00,0.0097
2302.00,0.0097
2301.00,0.0098
2300.00,0.0099
2299.00,0.0101
2298.00,0.0101
2297.00,0.0102
2296.00,0.0102
2295.00,0.0102
2294.00,0.0102
2293.00,0.0103
2292.00,0.0104
2291.00,0.0105
2290.00,0.0106
2289.00,0.0107
2288.00,0.0108
2287.00,0.0108
2286.00,0.0108
2285.00,0.0108
2284.00,0.0108
2283.00,0.0108
2282.00,0.0108
2281.00,0.0107
2280.00,0.0107
2279.00,0.0106
2278.00,0.0105
2277.00,0.0105
2276.00,0.0104
2275.00,0.0103
2274.00,0.0103
2273.00,0.0104
2272.00,0.0104
2271.00,0.0104
2270.00,0.0104
2269.00,0.0103
2268.00,0.0101
2267.00,0.0100
2266.00,0.0099
2265.00,0.0099
2264.00,0.0099
2263.00,0.0099
2262.00,0.0099
2261.00,0.0099
2260.00,0.0099
2259.00,0.0100
2258.00,0.0101
2257.00,0.0100
2256.00,0.0099
2255.00,0.0098
2254.00,0.0098
2253.00,0.0097
2252.00,0.0097
2251.00,0.0097
2250.00,0.0096
2249.00,0.0097
2248.00,0.0098
2247.00,0.0098
2246.00,0.0098
2245.00,0.0098
2244.00,0.0097
2243.00,0.0097
2242.00,0.0097
2241.00,0.0098
2240.00,0.0098
2239.00,0.0098
2238.00,0.0098
2237.00,0.0097
2236.00,0.0097
2235.00,0.0097
2234.00,0.0097
2233.00,0.0097
2232.00,0.0097
2231.00,0.0098
2230.00,0.0099
2229.00,0.0100
2228.00,0.0100
2227.00,0.0100
2226.00,0.0100
2225.00,0.0100
2224.00,0.0100
2223.00,0.0099
2222.00,0.0097
2221.00,0.0097
2220.00,0.0097
2219.00,0.0097
2218.00,0.0098
2217.00,0.0100
2216.00,0.0101
2215.00,0.0101
2214.00,0.0101
2213.00,0.0100
2212.00,0.0098
2211.00,0.0096
2210.00,0.0095
2209.00,0.0096
2208.00,0.0098
2207.00,0.0099
2206.00,0.0099
2205.00,0.0098
2204.00,0.0099
2203.00,0.0100
2202.00,0.0101
2201.00,0.0101
2200.00,0.0100
2199.00,0.0098
2198.00,0.0096
2197.00,0.0096
2196.00,0.0096
2195.00,0.0097
2194.00,0.0098
2193.00,0.0099
2192.00,0.0099
2191.00,0.0099
2190.00,0.0099
2189.00,0.0100
2188.00,0.0101
2187.00,0.0101
2186.00,0.0100
2185.00,0.0099
2184.00,0.0098
2183.00,0.0096
2182.00,0.0094
2181.00,0.0093
2180.00,0.0092
2179.00,0.0091
2178.00,0.0090
2177.00,0.0089
2176.00,0.0088
2175.00,0.0088
2174.00,0.0087
2173.00,0.0087
2172.00,0.0088
2171.00,0.0089
2170.00,0.0092
2169.00,0.0097
2168.00,0.0101
2167.00,0.0102
2166.00,0.0099
2165.00,0.0095
2164.00,0.0093
2163.00,0.0093
2162.00,0.0094
2161.00,0.0091
2160.00,0.0080
2159.00,0.0063
2158.00,0.0048
2157.00,0.0042
2156.00,0.0043
2155.00,0.0048
2154.00,0.0052
2153.00,0.0056
2152.00,0.0059
2151.00,0.0062
2150.00,0.0064
2149.00,0.0068
2148.00,0.0071
2147.00,0.0073
2146.00,0.0074
2145.00,0.0074
2144.00,0.0075
2143.00,0.0075
2142.00,0.0075
2141.00,0.0075
2140.00,0.0077
2139.00,0.0080
2138.00,0.0083
2137.00,0.0084
2136.00,0.0083
2135.00,0.0081
2134.00,0.0079
2133.00,0.0079
2132.00,0.0081
2131.00,0.0084
2130.00,0.0086
2129.00,0.0090
2128.00,0.0093
2127.00,0.0096
2126.00,0.0098
2125.00,0.0100
2124.00,0.0102
2123.00,0.0104
2122.00,0.0105
2121.00,0.0105
2120.00,0.0105
2119.00,0.0105
2118.00,0.0105
2117.00,0.0107
2116.00,0.0109
2115.00,0.0111
2114.00,0.0112
2113.00,0.0112
2112.00,0.0112
2111.00,0.0111
2110.00,0.0111
2109.00,0.0112
2108.00,0.0114
2107.00,0.0115
2106.00,0.0115
2105.00,0.0115
2104.00,0.0114
2103.00,0.0113
2102.00,0.0112
2101.00,0.0111
2100.00,0.0110
2099.00,0.0109
2098.00,0.0108
2097.00,0.0107
2096.00,0.0106
2095.00,0.0105
2094.00,0.0104
2093.00,0.0103
2092.00,0.0103
2091.00,0.0103
2090.00,0.0103
2089.00,0.0103
2088.00,0.0104
2087.00,0.0105
2086.00,0.0106
2085.00,0.0107
2084.00,0.0107
2083.00,0.0106
2082.00,0.0106
2081.00,0.0105
2080.00,0.0105
2079.00,0.0105
2078.00,0.0104
2077.00,0.0103
2076.00,0.0102
2075.00,0.0102
2074.00,0.0102
2073.00,0.0102
2072.00,0.0103
2071.00,0.0102
2070.00,0.0100
2069.00,0.0098
2068.00,0.0096
2067.00,0.0094
2066.00,0.0092
2065.00,0.0090
2064.00,0.0090
2063.00,0.0090
2062.00,0.0092
2061.00,0.0093
2060.00,0.0094
2059.00,0.0094
2058.00,0.0093
2057.00,0.0091
2056.00,0.0089
2055.00,0.0088
2054.00,0.0089
2053.00,0.0091
2052.00,0.0095
2051.00,0.0098
2050.00,0.0097
2049.00,0.0093
2048.00,0.0088
2047.00,0.0082
2046.00,0.0078
2045.00,0.0075
2044.00,0.0073
2043.00,0.0071
2042.00,0.0070
2041.00,0.0071
2040.00,0.0074
2039.00,0.0076
2038.00,0.0076
2037.00,0.0075
2036.00,0.0072
2035.00,0.0068
2034.00,0.0064
2033.00,0.0062
2032.00,0.0062
2031.00,0.0062
2030.00,0.0062
2029.00,0.0061
2028.00,0.0059
2027.00,0.0056
2026.00,0.0053
2025.00,0.0053
2024.00,0.0055
2023.00,0.0057
2022.00,0.0058
2021.00,0.0058
2020.00,0.0059
2019.00,0.0058
2018.00,0.0057
2017.00,0.0055
2016.00,0.0054
2015.00,0.0053
2014.00,0.0053
2013.00,0.0053
2012.00,0.0052
2011.00,0.0051
2010.00,0.0048
2009.00,0.0047
2008.00,0.0047
2007.00,0.0046
2006.00,0.0045
2005.00,0.0046
2004.00,0.0048
2003.00,0.0051
2002.00,0.0054
2001.00,0.0057
2000.00,0.0060
1999.00,0.0062
1998.00,0.0063
1997.00,0.0063
1996.00,0.0062
1995.00,0.0062
1994.00,0.0062
1993.00,0.0063
1992.00,0.0065
1991.00,0.0066
1990.00,0.0065
1989.00,0.0065
1988.00,0.0065
1987.00,0.0065
1986.00,0.0064
1985.00,0.0066
1984.00,0.0070
1983.00,0.0073
1982.00,0.0074
1981.00,0.0075
1980.00,0.0073
1979.00,0.0068
1978.00,0.0061
1977.00,0.0055
1976.00,0.0052
1975.00,0.0050
1974.00,0.0046
1973.00,0.0044
1972.00,0.0043
1971.00,0.0042
1970.00,0.0042
1969.00,0.0043
1968.00,0.0044
1967.00,0.0045
1966.00,0.0046
1965.00,0.0047
1964.00,0.0049
1963.00,0.0049
1962.00,0.0048
1961.00,0.0047
1960.00,0.0046
1959.00,0.0043
1958.00,0.0042
1957.00,0.0044
1956.00,0.0048
1955.00,0.0051
1954.00,0.0051
1953.00,0.0050
1952.00,0.0049
1951.00,0.0049
1950.00,0.0050
1949.00,0.0050
1948.00,0.0049
1947.00,0.0048
1946.00,0.0047
1945.00,0.0047
1944.00,0.0048
1943.00,0.0048
1942.00,0.0048
1941.00,0.0049
1940.00,0.0051
1939.00,0.0053
1938.00,0.0053
1937.00,0.0052
1936.00,0.0052
1935.00,0.0053
1934.00,0.0053
1933.00,0.0053
1932.00,0.0053
1931.00,0.0053
1930.00,0.0053
1929.00,0.0054
1928.00,0.0055
1927.00,0.0054
1926.00,0.0053
1925.00,0.0053
1924.00,0.0053
1923.00,0.0053
1922.00,0.0053
1921.00,0.0054
1920.00,0.0055
1919.00,0.0055
1918.00,0.0053
1917.00,0.0052
1916.00,0.0052
1915.00,0.0053
1914.00,0.0054
1913.00,0.0054
1912.00,0.0055
1911.00,0.0055
1910.00,0.0055
1909.00,0.0054
1908.00,0.0054
1907.00,0.0054
1906.00,0.0053
1905.00,0.0053
1904.00,0.0052
1903.00,0.0052
1902.00,0.0052
1901.00,0.0052
1900.00,0.0052
1899.00,0.0052
1898.00,0.0052
1897.00,0.0052
1896.00,0.0053
1895.00,0.0053
1894.00,0.0052
1893.00,0.0051
1892.00,0.0050
1891.00,0.0050
1890.00,0.0049
1889.00,0.0049
1888.00,0.0049
1887.00,0.0049
1886.00,0.0049
1885.00,0.0049
1884.00,0.0049
1883.00,0.0049
1882.00,0.0049
1881.00,0.0050
1880.00,0.0050
1879.00,0.0050
1878.00,0.0048
1877.00,0.0048
1876.00,0.0048
1875.00,0.0048
1874.00,0.0048
1873.00,0.0048
1872.00,0.0048
1871.00,0.0047
1870.00,0.0047
1869.00,0.0046
1868.00,0.0046
1867.00,0.0046
1866.00,0.0047
1865.00,0.0048
1864.00,0.0048
1863.00,0.0047
1862.00,0.0046
1861.00,0.0046
1860.00,0.0047
1859.00,0.0048
1858.00,0.0048
1857.00,0.0048
1856.00,0.0048
1855.00,0.0047
1854.00,0.0046
1853.00,0.0045
1852.00,0.0045
1851.00,0.0046
1850.00,0.0045
1849.00,0.0045
1848.00,0.0044
1847.00,0.0044
1846.00,0.0046
1845.00,0.0047
1844.00,0.0046
1843.00,0.0044
1842.00,0.0043
1841.00,0.0044
1840.00,0.0046
1839.00,0.0046
1838.00,0.0046
1837.00,0.0045
1836.00,0.0045
1835.00,0.0045
1834.00,0.0045
1833.00,0.0045
1832.00,0.0046
1831.00,0.0047
1830.00,0.0046
1829.00,0.0044
1828.00,0.0044
1827.00,0.0044
1826.00,0.0045
1825.00,0.0046
1824.00,0.0046
1823.00,0.0046
1822.00,0.0047
1821.00,0.0047
1820.00,0.0047
1819.00,0.0046
1818.00,0.0044
1817.00,0.0043
1816.00,0.0043
1815.00,0.0043
1814.00,0.0044
1813.00,0.0045
1812.00,0.0046
1811.00,0.0047
1810.00,0.0047
1809.00,0.0047
1808.00,0.0047
1807.00,0.0046
1806.00,0.0045
1805.00,0.0045
1804.00,0.0045
1803.00,0.0044
1802.00,0.0044
1801.00,0.0045
1800.00,0.0046
1799.00,0.0047
1798.00,0.0047
1797.00,0.0046
1796.00,0.0046
1795.00,0.0046
1794.00,0.0046
1793.00,0.0046
1792.00,0.0045
1791.00,0.0044
1790.00,0.0044
1789.00,0.0045
1788.00,0.0046
1787.00,0.0046
1786.00,0.0046
1785.00,0.0045
1784.00,0.0045
1783.00,0.0044
1782.00,0.0045
1781.00,0.0045
1780.00,0.0045
1779.00,0.0045
1778.00,0.0044
1777.00,0.0044
1776.00,0.0044
1775.00,0.0045
1774.00,0.0046
1773.00,0.0047
1772.00,0.0047
1771.00,0.0045
1770.00,0.0044
1769.00,0.0046
1768.00,0.0047
1767.00,0.0047
1766.00,0.0045
1765.00,0.0045
1764.00,0.0046
1763.00,0.0047
1762.00,0.0046
1761.00,0.0047
1760.00,0.0048
1759.00,0.0051
1758.00,0.0053
1757.00,0.0056
1756.00,0.0058
1755.00,0.0061
1754.00,0.0063
1753.00,0.0068
1752.00,0.0073
1751.00,0.0076
1750.00,0.0077
1749.00,0.0081
1748.00,0.0085
1747.00,0.0090
1746.00,0.0093
1745.00,0.0096
1744.00,0.0099
1743.00,0.0102
1742.00,0.0105
1741.00,0.0109
1740.00,0.0113
1739.00,0.0115
1738.00,0.0115
1737.00,0.0118
1736.00,0.0125
1735.00,0.0132
1734.00,0.0137
1733.00,0.0139
1732.00,0.0141
1731.00,0.0144
1730.00,0.0147
1729.00,0.0151
1728.00,0.0155
1727.00,0.0159
1726.00,0.0163
1725.00,0.0167
1724.00,0.0173
1723.00,0.0178
1722.00,0.0181
1721.00,0.0185
1720.00,0.0191
1719.00,0.0198
1718.00,0.0208
1717.00,0.0217
1716.00,0.0226
1715.00,0.0233
1714.00,0.0238
1713.00,0.0244
1712.00,0.0252
1711.00,0.0259
1710.00,0.0266
1709.00,0.0273
1708.00,0.0282
1707.00,0.0293
1706.00,0.0305
1705.00,0.0316
1704.00,0.0326
1703.00,0.0337
1702.00,0.0351
1701.00,0.0371
1700.00,0.0396
1699.00,0.0419
1698.00,0.0441
1697.00,0.0465
1696.00,0.0493
1695.00,0.0519
1694.00,0.0539
1693.00,0.0558
1692.00,0.0579
1691.00,0.0603
1690.00,0.0628
1689.00,0.0654
1688.00,0.0679
1687.00,0.0703
1686.00,0.0729
1685.00,0.0761
1684.00,0.0802
1683.00,0.0838
1682.00,0.0865
1681.00,0.0889
1680.00,0.0912
1679.00,0.0934
1678.00,0.0954
1677.00,0.0976
1676.00,0.1004
1675.00,0.1038
1674.00,0.1070
1673.00,0.1097
1672.00,0.1122
1671.00,0.1149
1670.00,0.1182
1669.00,0.1220
1668.00,0.1257
1667.00,0.1288
1666.00,0.1313
1665.00,0.1338
1664.00,0.1367
1663.00,0.1404
1662.00,0.1442
1661.00,0.1479
1660.00,0.1512
1659.00,0.1541
1658.00,0.1564
1657.00,0.1581
1656.00,0.1595
1655.00,0.1611
1654.00,0.1640
1653.00,0.1695
1652.00,0.1748
1651.00,0.1773
1650.00,0.1779
1649.00,0.1781
1648.00,0.1790
1647.00,0.1810
1646.00,0.1835
1645.00,0.1856
1644.00,0.1869
1643.00,0.1875
1642.00,0.1878
1641.00,0.1880
1640.00,0.1882
1639.00,0.1883
1638.00,0.1883
1637.00,0.1885
1636.00,0.1893
1635.00,0.1906
1634.00,0.1913
1633.00,0.1911
1632.00,0.1904
1631.00,0.1892
1630.00,0.1877
1629.00,0.1862
1628.00,0.1848
1627.00,0.1835
1626.00,0.1820
1625.00,0.1802
1624.00,0.1783
1623.00,0.1763
1622.00,0.1742
1621.00,0.1719
1620.00,0.1693
1619.00,0.1664
1618.00,0.1629
1617.00,0.1589
1616.00,0.1549
1615.00,0.1512
1614.00,0.1476
1613.00,0.1439
1612.00,0.1401
1611.00,0.1362
1610.00,0.1324
1609.00,0.1289
1608.00,0.1255
1607.00,0.1222
1606.00,0.1192
1605.00,0.1161
1604.00,0.1132
1603.00,0.1104
1602.00,0.1077
1601.00,0.1051
1600.00,0.1025
1599.00,0.1001
1598.00,0.0977
1597.00,0.0955
1596.00,0.0933
1595.00,0.0913
1594.00,0.0894
1593.00,0.0876
1592.00,0.0858
1591.00,0.0842
1590.00,0.0827
1589.00,0.0813
1588.00,0.0801
1587.00,0.0790
1586.00,0.0780
1585.00,0.0771
1584.00,0.0762
1583.00,0.0755
1582.00,0.0749
1581.00,0.0744
1580.00,0.0738
1579.00,0.0735
1578.00,0.0735
1577.00,0.0737
1576.00,0.0739
1575.00,0.0741
1574.00,0.0740
1573.00,0.0739
1572.00,0.0738
1571.00,0.0738
1570.00,0.0742
1569.00,0.0750
1568.00,0.0758
1567.00,0.0765
1566.00,0.0772
1565.00,0.0778
1564.00,0.0783
1563.00,0.0788
1562.00,0.0791
1561.00,0.0793
1560.00,0.0799
1559.00,0.0820
1558.00,0.0849
1557.00,0.0867
1556.00,0.0878
1555.00,0.0887
1554.00,0.0896
1553.00,0.0903
1552.00,0.0909
1551.00,0.0914
1550.00,0.0919
1549.00,0.0925
1548.00,0.0929
1547.00,0.0930
1546.00,0.0928
1545.00,0.0924
1544.00,0.0921
1543.00,0.0919
1542.00,0.0917
1541.00,0.0917
1540.00,0.0916
1539.00,0.0913
1538.00,0.0905
1537.00,0.0893
1536.00,0.0878
1535.00,0.0863
1534.00,0.0846
1533.00,0.0831
1532.00,0.0818
1531.00,0.0807
1530.00,0.0794
1529.00,0.0778
1528.00,0.0762
1527.00,0.0746
1526.00,0.0731
1525.00,0.0717
1524.00,0.0704
1523.00,0.0691
1522.00,0.0678
1521.00,0.0665
1520.00,0.0651
1519.00,0.0639
1518.00,0.0625
1517.00,0.0611
1516.00,0.0595
1515.00,0.0579
1514.00,0.0563
1513.00,0.0544
1512.00,0.0524
1511.00,0.0502
1510.00,0.0482
1509.00,0.0464
1508.00,0.0448
1507.00,0.0432
1506.00,0.0418
1505.00,0.0403
1504.00,0.0388
1503.00,0.0373
1502.00,0.0358
1501.00,0.0343
1500.00,0.0328
1499.00,0.0316
1498.00,0.0306
1497.00,0.0298
1496.00,0.0290
1495.00,0.0280
1494.00,0.0271
1493.00,0.0263
1492.00,0.0255
1491.00,0.0247
1490.00,0.0239
1489.00,0.0234
1488.00,0.0231
1487.00,0.0228
1486.00,0.0226
1485.00,0.0223
1484.00,0.0221
1483.00,0.0220
1482.00,0.0220
1481.00,0.0221
1480.00,0.0223
1479.00,0.0226
1478.00,0.0228
1477.00,0.0232
1476.00,0.0237
1475.00,0.0244
1474.00,0.0255
1473.00,0.0268
1472.00,0.0281
1471.00,0.0291
1470.00,0.0298
1469.00,0.0303
1468.00,0.0306
1467.00,0.0308
1466.00,0.0312
1465.00,0.0318
1464.00,0.0325
1463.00,0.0332
1462.00,0.0336
1461.00,0.0338
1460.00,0.0340
1459.00,0.0343
1458.00,0.0352
1457.00,0.0366
1456.00,0.0379
1455.00,0.0385
1454.00,0.0386
1453.00,0.0386
1452.00,0.0384
1451.00,0.0382
1450.00,0.0379
1449.00,0.0379
1448.00,0.0379
1447.00,0.0379
1446.00,0.0380
1445.00,0.0380
1444.00,0.0380
1443.00,0.0380
1442.00,0.0379
1441.00,0.0379
1440.00,0.0377
1439.00,0.0375
1438.00,0.0374
1437.00,0.0375
1436.00,0.0380
1435.00,0.0384
1434.00,0.0386
1433.00,0.0387
1432.00,0.0388
1431.00,0.0390
1430.00,0.0394
1429.00,0.0398
1428.00,0.0403
1427.00,0.0407
1426.00,0.0410
1425.00,0.0414
1424.00,0.0419
1423.00,0.0423
1422.00,0.0426
1421.00,0.0428
1420.00,0.0431
1419.00,0.0436
1418.00,0.0442
1417.00,0.0448
1416.00,0.0451
1415.00,0.0451
1414.00,0.0450
1413.00,0.0448
1412.00,0.0447
1411.00,0.0445
1410.00,0.0442
1409.00,0.0439
1408.00,0.0435
1407.00,0.0430
1406.00,0.0425
1405.00,0.0422
1404.00,0.0418
1403.00,0.0413
1402.00,0.0406
1401.00,0.0399
1400.00,0.0391
1399.00,0.0383
1398.00,0.0375
1397.00,0.0368
1396.00,0.0361
1395.00,0.0354
1394.00,0.0348
1393.00,0.0342
1392.00,0.0336
1391.00,0.0330
1390.00,0.0323
1389.00,0.0317
1388.00,0.0312
1387.00,0.0309
1386.00,0.0307
1385.00,0.0304
1384.00,0.0300
1383.00,0.0297
1382.00,0.0293
1381.00,0.0290
1380.00,0.0287
1379.00,0.0283
1378.00,0.0278
1377.00,0.0272
1376.00,0.0266
1375.00,0.0260
1374.00,0.0255
1373.00,0.0250
1372.00,0.0244
1371.00,0.0239
1370.00,0.0232
1369.00,0.0225
1368.00,0.0218
1367.00,0.0210
1366.00,0.0202
1365.00,0.0193
1364.00,0.0184
1363.00,0.0177
1362.00,0.0172
1361.00,0.0169
1360.00,0.0165
1359.00,0.0161
1358.00,0.0157
1357.00,0.0153
1356.00,0.0149
1355.00,0.0145
1354.00,0.0142
1353.00,0.0138
1352.00,0.0135
1351.00,0.0131
1350.00,0.0127
1349.00,0.0123
1348.00,0.0119
1347.00,0.0115
1346.00,0.0111
1345.00,0.0107
1344.00,0.0103
1343.00,0.0098
1342.00,0.0094
1341.00,0.0089
1340.00,0.0085
1339.00,0.0082
1338.00,0.0080
1337.00,0.0078
1336.00,0.0076
1335.00,0.0073
1334.00,0.0070
1333.00,0.0067
1332.00,0.0064
1331.00,0.0061
1330.00,0.0060
1329.00,0.0059
1328.00,0.0058
1327.00,0.0058
1326.00,0.0058
1325.00,0.0057
1324.00,0.0057
1323.00,0.0058
1322.00,0.0058
1321.00,0.0058
1320.00,0.0058
1319.00,0.0058
1318.00,0.0058
1317.00,0.0058
1316.00,0.0058
1315.00,0.0057
1314.00,0.0055
1313.00,0.0054
1312.00,0.0053
1311.00,0.0052
1310.00,0.0050
1309.00,0.0049
1308.00,0.0048
1307.00,0.0046
1306.00,0.0046
1305.00,0.0045
1304.00,0.0045
1303.00,0.0046
1302.00,0.0047
1301.00,0.0048
1300.00,0.0050
1299.00,0.0052
1298.00,0.0055
1297.00,0.0058
1296.00,0.0062
1295.00,0.0067
1294.00,0.0072
1293.00,0.0078
1292.00,0.0084
1291.00,0.0091
1290.00,0.0100
1289.00,0.0109
1288.00,0.0119
1287.00,0.0130
1286.00,0.0141
1285.00,0.0152
1284.00,0.0165
1283.00,0.0177
1282.00,0.0190
1281.00,0.0204
1280.00,0.0218
1279.00,0.0232
1278.00,0.0247
1277.00,0.0262
1276.00,0.0277
1275.00,0.0292
1274.00,0.0307
1273.00,0.0322
1272.00,0.0337
1271.00,0.0352
1270.00,0.0367
1269.00,0.0381
1268.00,0.0396
1267.00,0.0410
1266.00,0.0423
1265.00,0.0437
1264.00,0.0451
1263.00,0.0464
1262.00,0.0478
1261.00,0.0490
1260.00,0.0503
1259.00,0.0514
1258.00,0.0525
1257.00,0.0535
1256.00,0.0546
1255.00,0.0556
1254.00,0.0566
1253.00,0.0575
1252.00,0.0584
1251.00,0.0592
1250.00,0.0601
1249.00,0.0609
1248.00,0.0616
1247.00,0.0624
1246.00,0.0631
1245.00,0.0639
1244.00,0.0646
1243.00,0.0654
1242.00,0.0661
1241.00,0.0667
1240.00,0.0674
1239.00,0.0682
1238.00,0.0689
1237.00,0.0697
1236.00,0.0704
1235.00,0.0711
1234.00,0.0717
1233.00,0.0724
1232.00,0.0731
1231.00,0.0738
1230.00,0.0745
1229.00,0.0752
1228.00,0.0758
1227.00,0.0765
1226.00,0.0771
1225.00,0.0776
1224.00,0.0782
1223.00,0.0787
1222.00,0.0791
1221.00,0.0794
1220.00,0.0797
1219.00,0.0798
1218.00,0.0797
1217.00,0.0795
1216.00,0.0792
1215.00,0.0788
1214.00,0.0782
1213.00,0.0776
1212.00,0.0769
1211.00,0.0762
1210.00,0.0753
1209.00,0.0744
1208.00,0.0734
1207.00,0.0723
1206.00,0.0711
1205.00,0.0700
1204.00,0.0687
1203.00,0.0675
1202.00,0.0662
1201.00,0.0650
1200.00,0.0640
1199.00,0.0630
1198.00,0.0621
1197.00,0.0613
1196.00,0.0607
1195.00,0.0602
1194.00,0.0599
1193.00,0.0597
1192.00,0.0596
1191.00,0.0595
1190.00,0.0594
1189.00,0.0593
1188.00,0.0593
1187.00,0.0593
1186.00,0.0595
1185.00,0.0597
1184.00,0.0601
1183.00,0.0605
1182.00,0.0611
1181.00,0.0618
1180.00,0.0628
1179.00,0.0638
1178.00,0.0651
1177.00,0.0664
1176.00,0.0679
1175.00,0.0696
1174.00,0.0713
1173.00,0.0732
1172.00,0.0751
1171.00,0.0771
1170.00,0.0793
1169.00,0.0815
1168.00,0.0839
1167.00,0.0863
1166.00,0.0887
1165.00,0.0911
1164.00,0.0935
1163.00,0.0957
1162.00,0.0979
1161.00,0.0998
1160.00,0.1017
1159.00,0.1035
1158.00,0.1051
1157.00,0.1066
1156.00,0.1080
1155.00,0.1094
1154.00,0.1106
1153.00,0.1117
1152.00,0.1126
1151.00,0.1134
1150.00,0.1140
1149.00,0.1144
1148.00,0.1147
1147.00,0.1147
1146.00,0.1146
1145.00,0.1144
1144.00,0.1141
1143.00,0.1137
1142.00,0.1132
1141.00,0.1127
1140.00,0.1124
1139.00,0.1121
1138.00,0.1119
1137.00,0.1120
1136.00,0.1123
1135.00,0.1128
1134.00,0.1134
1133.00,0.1142
1132.00,0.1152
1131.00,0.1162
1130.00,0.1173
1129.00,0.1185
1128.00,0.1198
1127.00,0.1209
1126.00,0.1219
1125.00,0.1228
1124.00,0.1236
1123.00,0.1243
1122.00,0.1250
1121.00,0.1256
1120.00,0.1261
1119.00,0.1266
1118.00,0.1270
1117.00,0.1273
1116.00,0.1276
1115.00,0.1278
1114.00,0.1279
1113.00,0.1280
1112.00,0.1280
1111.00,0.1279
1110.00,0.1279
1109.00,0.1279
1108.00,0.1280
1107.00,0.1283
1106.00,0.1287
1105.00,0.1294
1104.00,0.1302
1103.00,0.1312
1102.00,0.1322
1101.00,0.1334
1100.00,0.1349
1099.00,0.1363
1098.00,0.1378
1097.00,0.1392
1096.00,0.1406
1095.00,0.1419
1094.00,0.1433
1093.00,0.1448
1092.00,0.1465
1091.00,0.1482
1090.00,0.1501
1089.00,0.1521
1088.00,0.1543
1087.00,0.1566
1086.00,0.1589
1085.00,0.1612
1084.00,0.1637
1083.00,0.1662
1082.00,0.1688
1081.00,0.1715
1080.00,0.1743
1079.00,0.1769
1078.00,0.1794
1077.00,0.1819
1076.00,0.1842
1075.00,0.1862
1074.00,0.1879
1073.00,0.1895
1072.00,0.1909
1071.00,0.1921
1070.00,0.1931
1069.00,0.1939
1068.00,0.1945
1067.00,0.1948
1066.00,0.1948
1065.00,0.1947
1064.00,0.1946
1063.00,0.1943
1062.00,0.1940
1061.00,0.1938
1060.00,0.1939
1059.00,0.1941
1058.00,0.1946
1057.00,0.1955
1056.00,0.1968
1055.00,0.1983
1054.00,0.2001
1053.00,0.2021
1052.00,0.2043
1051.00,0.2069
1050.00,0.2096
1049.00,0.2127
1048.00,0.2160
1047.00,0.2191
1046.00,0.2220
1045.00,0.2248
1044.00,0.2273
1043.00,0.2293
1042.00,0.2310
1041.00,0.2322
1040.00,0.2332
1039.00,0.2338
1038.00,0.2341
1037.00,0.2344
1036.00,0.2346
1035.00,0.2346
1034.00,0.2345
1033.00,0.2346
1032.00,0.2348
1031.00,0.2350
1030.00,0.2350
1029.00,0.2347
1028.00,0.2341
1027.00,0.2331
1026.00,0.2316
1025.00,0.2299
1024.00,0.2279
1023.00,0.2258
1022.00,0.2234
1021.00,0.2209
1020.00,0.2183
1019.00,0.2155
1018.00,0.2126
1017.00,0.2096
1016.00,0.2066
1015.00,0.2035
1014.00,0.2004
1013.00,0.1973
1012.00,0.1945
1011.00,0.1917
1010.00,0.1890
1009.00,0.1864
1008.00,0.1839
1007.00,0.1815
1006.00,0.1791
1005.00,0.1766
1004.00,0.1739
1003.00,0.1707
1002.00,0.1672
1001.00,0.1634
1000.00,0.1593
999.00,0.1551
998.00,0.1507
997.00,0.1465
996.00,0.1424
995.00,0.1385
994.00,0.1347
993.00,0.1310
992.00,0.1274
991.00,0.1238
990.00,0.1202
989.00,0.1166
988.00,0.1131
987.00,0.1096
986.00,0.1061
985.00,0.1027
984.00,0.0994
983.00,0.0963
982.00,0.0934
981.00,0.0908
980.00,0.0883
979.00,0.0859
978.00,0.0836
977.00,0.0814
976.00,0.0794
975.00,0.0773
974.00,0.0752
973.00,0.0730
972.00,0.0709
971.00,0.0688
970.00,0.0666
969.00,0.0642
968.00,0.0616
967.00,0.0587
966.00,0.0556
965.00,0.0525
964.00,0.0494
963.00,0.0463
962.00,0.0433
961.00,0.0404
960.00,0.0378
959.00,0.0354
958.00,0.0333
957.00,0.0314
956.00,0.0297
955.00,0.0282
954.00,0.0268
953.00,0.0256
952.00,0.0247
951.00,0.0239
950.00,0.0232
949.00,0.0227
948.00,0.0224
947.00,0.0222
946.00,0.0222
945.00,0.0223
944.00,0.0226
943.00,0.0232
942.00,0.0241
941.00,0.0251
940.00,0.0264
939.00,0.0278
938.00,0.0293
937.00,0.0309
936.00,0.0323
935.00,0.0337
934.00,0.0347
933.00,0.0356
932.00,0.0361
931.00,0.0365
930.00,0.0366
929.00,0.0365
928.00,0.0361
927.00,0.0354
926.00,0.0346
925.00,0.0337
924.00,0.0330
923.00,0.0322
922.00,0.0315
921.00,0.0307
920.00,0.0298
919.00,0.0288
918.00,0.0276
917.00,0.0264
916.00,0.0252
915.00,0.0238
914.00,0.0225
913.00,0.0212
912.00,0.0198
911.00,0.0185
910.00,0.0172
909.00,0.0160
908.00,0.0150
907.00,0.0140
906.00,0.0130
905.00,0.0121
904.00,0.0113
903.00,0.0106
902.00,0.0099
901.00,0.0092
900.00,0.0086
899.00,0.0081
898.00,0.0076
897.00,0.0072
896.00,0.0069
895.00,0.0067
894.00,0.0066
893.00,0.0065
892.00,0.0063
891.00,0.0062
890.00,0.0061
889.00,0.0060
888.00,0.0060
887.00,0.0059
886.00,0.0057
885.00,0.0056
884.00,0.0054
883.00,0.0052
882.00,0.0050
881.00,0.0050
880.00,0.0051
879.00,0.0055
878.00,0.0059
877.00,0.0064
876.00,0.0070
875.00,0.0075
874.00,0.0080
873.00,0.0083
872.00,0.0083
871.00,0.0080
870.00,0.0072
869.00,0.0063
868.00,0.0053
867.00,0.0046
866.00,0.0041
865.00,0.0038
864.00,0.0037
863.00,0.0037
862.00,0.0039
861.00,0.0041
860.00,0.0045
859.00,0.0049
858.00,0.0054
857.00,0.0062
856.00,0.0071
855.00,0.0081
854.00,0.0090
853.00,0.0099
852.00,0.0109
851.00,0.0119
850.00,0.0129
849.00,0.0137
848.00,0.0144
847.00,0.0148
846.00,0.0150
845.00,0.0149
844.00,0.0146
843.00,0.0142
842.00,0.0137
841.00,0.0131
840.00,0.0126
839.00,0.0120
838.00,0.0115
837.00,0.0111
836.00,0.0106
835.00,0.0102
834.00,0.0098
833.00,0.0093
832.00,0.0088
831.00,0.0084
830.00,0.0079
829.00,0.0074
828.00,0.0070
827.00,0.0065
826.00,0.0061
825.00,0.0057
824.00,0.0055
823.00,0.0053
822.00,0.0053
821.00,0.0052
820.00,0.0051
819.00,0.0049
818.00,0.0048
817.00,0.0046
816.00,0.0046
815.00,0.0046
814.00,0.0047
813.00,0.0049
812.00,0.0051
811.00,0.0054
810.00,0.0058
809.00,0.0062
808.00,0.0066
807.00,0.0070
806.00,0.0075
805.00,0.0079
804.00,0.0083
803.00,0.0085
802.00,0.0087
801.00,0.0088
800.00,0.0088
799.00,0.0088
798.00,0.0087
797.00,0.0085
796.00,0.0083
795.00,0.0080
794.00,0.0076
793.00,0.0072
792.00,0.0069
791.00,0.0066
790.00,0.0064
789.00,0.0063
788.00,0.0063
787.00,0.0063
786.00,0.0063
785.00,0.0063
784.00,0.0065
783.00,0.0067
782.00,0.0070
781.00,0.0074
780.00,0.0078
779.00,0.0081
778.00,0.0084
777.00,0.0085
776.00,0.0085
775.00,0.0085
774.00,0.0084
773.00,0.0083
772.00,0.0080
771.00,0.0077
770.00,0.0073
769.00,0.0069
768.00,0.0066
767.00,0.0063
766.00,0.0060
765.00,0.0056
764.00,0.0053
763.00,0.0050
762.00,0.0048
761.00,0.0048
760.00,0.0048
759.00,0.0047
758.00,0.0047
757.00,0.0047
756.00,0.0046
755.00,0.0046
754.00,0.0047
753.00,0.0050
752.00,0.0054
751.00,0.0060
750.00,0.0067
749.00,0.0076
748.00,0.0085
747.00,0.0093
746.00,0.0100
745.00,0.0107
744.00,0.0113
743.00,0.0118
742.00,0.0122
741.00,0.0126
740.00,0.0128
739.00,0.0128
738.00,0.0127
737.00,0.0127
736.00,0.0127
735.00,0.0127
734.00,0.0126
733.00,0.0124
732.00,0.0123
731.00,0.0123
730.00,0.0123
729.00,0.0124
728.00,0.0127
727.00,0.0129
726.00,0.0131
725.00,0.0134
724.00,0.0136
723.00,0.0138
722.00,0.0139
721.00,0.0139
720.00,0.0139
719.00,0.0137
718.00,0.0134
717.00,0.0133
716.00,0.0133
715.00,0.0133
714.00,0.0133
713.00,0.0132
712.00,0.0134
711.00,0.0137
710.00,0.0140
709.00,0.0144
708.00,0.0148
707.00,0.0153
706.00,0.0158
705.00,0.0163
704.00,0.0166
703.00,0.0168
702.00,0.0170
701.00,0.0172
700.00,0.0174
699.00,0.0175
698.00,0.0173
697.00,0.0170
696.00,0.0166
695.00,0.0161
694.00,0.0154
693.00,0.0146
692.00,0.0137
691.00,0.0128
690.00,0.0119
689.00,0.0112
688.00,0.0106
687.00,0.0100
686.00,0.0095
685.00,0.0091
684.00,0.0089
683.00,0.0087
682.00,0.0085
681.00,0.0084
680.00,0.0085
679.00,0.0087
678.00,0.0090
677.00,0.0095
676.00,0.0102
675.00,0.0111
674.00,0.0122
673.00,0.0135
672.00,0.0145
671.00,0.0148
670.00,0.0144
669.00,0.0143
668.00,0.0155
667.00,0.0173
666.00,0.0178
665.00,0.0170
664.00,0.0159
663.00,0.0150
662.00,0.0145
661.00,0.0142
660.00,0.0141
659.00,0.0140
658.00,0.0138
657.00,0.0135
656.00,0.0131
655.00,0.0126
654.00,0.0122
653.00,0.0117
652.00,0.0113
651.00,0.0110
650.00,0.0105
649.00,0.0101
648.00,0.0095
647.00,0.0087
646.00,0.0079
645.00,0.0072
644.00,0.0069
643.00,0.0066
642.00,0.0062
641.00,0.0058
640.00,0.0053
639.00,0.0049
638.00,0.0045
637.00,0.0042
636.00,0.0042
635.00,0.0043
634.00,0.0045
633.00,0.0050
632.00,0.0056
631.00,0.0062
630.00,0.0068
629.00,0.0074
628.00,0.0081
627.00,0.0089
626.00,0.0098
625.00,0.0105
624.00,0.0114
623.00,0.0122
622.00,0.0130
621.00,0.0138
620.00,0.0147
619.00,0.0154
618.00,0.0161
617.00,0.0166
616.00,0.0173
615.00,0.0181
614.00,0.0188
613.00,0.0195
612.00,0.0204
611.00,0.0212
610.00,0.0220
609.00,0.0231
608.00,0.0244
607.00,0.0259
606.00,0.0274
605.00,0.0290
604.00,0.0308
603.00,0.0327
602.00,0.0344
601.00,0.0358
600.00,0.0372
599.00,0.0383
598.00,0.0390
597.00,0.0391
596.00,0.0386
595.00,0.0375
594.00,0.0360
593.00,0.0345
592.00,0.0335
591.00,0.0328
590.00,0.0324
589.00,0.0324
588.00,0.0327
587.00,0.0333
586.00,0.0337
585.00,0.0340
584.00,0.0342
583.00,0.0344
582.00,0.0346
581.00,0.0349
580.00,0.0354
579.00,0.0358
578.00,0.0360
577.00,0.0363
576.00,0.0364
575.00,0.0361
574.00,0.0351
573.00,0.0342
572.00,0.0336
571.00,0.0333
570.00,0.0326
569.00,0.0316
568.00,0.0306
567.00,0.0296
566.00,0.0289
565.00,0.0285
564.00,0.0283
563.00,0.0279
562.00,0.0270
561.00,0.0260
560.00,0.0253
559.00,0.0248
558.00,0.0242
557.00,0.0236
556.00,0.0231
555.00,0.0226
554.00,0.0220
553.00,0.0215
552.00,0.0212
551.00,0.0211
550.00,0.0211
549.00,0.0215
548.00,0.0222
547.00,0.0227
546.00,0.0227
545.00,0.0223
544.00,0.0222
543.00,0.0222
542.00,0.0223
541.00,0.0227
540.00,0.0232
539.00,0.0234
538.00,0.0229
537.00,0.0224
536.00,0.0225
535.00,0.0232
534.00,0.0240
533.00,0.0246
532.00,0.0248
531.00,0.0246
530.00,0.0244
529.00,0.0245
528.00,0.0250
527.00,0.0257
526.00,0.0262
525.00,0.0268
524.00,0.0274
523.00,0.0276
522.00,0.0272
521.00,0.0271
520.00,0.0276
519.00,0.0286
518.00,0.0292
517.00,0.0296
516.00,0.0299
515.00,0.0296
514.00,0.0285
513.00,0.0271
512.00,0.0259
511.00,0.0248
510.00,0.0234
509.00,0.0216
508.00,0.0195
507.00,0.0173
506.00,0.0151
505.00,0.0132
504.00,0.0118
503.00,0.0108
502.00,0.0101
501.00,0.0097
500.00,0.0096
499.00,0.0093
498.00,0.0086
497.00,0.0078
496.00,0.0073
495.00,0.0069
494.00,0.0064
493.00,0.0058
492.00,0.0054
491.00,0.0049
490.00,0.0043
489.00,0.0037
488.00,0.0033
487.00,0.0031
486.00,0.0031
485.00,0.0035
484.00,0.0040
483.00,0.0041
482.00,0.0035
481.00,0.0032
480.00,0.0036
479.00,0.0039
478.00,0.0036
477.00,0.0031
476.00,0.0031
475.00,0.0029
474.00,0.0022
473.00,0.0022
472.00,0.0041
471.00,0.0066
470.00,0.0077
469.00,0.0072
468.00,0.0062
467.00,0.0053
466.00,0.0041
465.00,0.0033
464.00,0.0033
463.00,0.0031
462.00,0.0019
461.00,0.0002
460.00,-0.0011
459.00,-0.0025
458.00,-0.0049
457.00,-0.0085
456.00,-0.0124
455.00,-0.0166
454.00,-0.0212
453.00,-0.0253
452.00,-0.0283
451.00,-0.0310
450.00,-0.0342
