Created as New Dataset,Sample 003 By Administrator Date Monday, June 09 2025
cm-1,A
4000.00,0.0097
3999.00,0.0097
3998.00,0.0097
3997.00,0.0097
3996.00,0.0097
3995.00,0.0097
3994.00,0.0097
3993.00,0.0097
3992.00,0.0097
3991.00,0.0097
3990.00,0.0097
3989.00,0.0097
3988.00,0.0098
3987.00,0.0098
3986.00,0.0098
3985.00,0.0098
3984.00,0.0098
3983.00,0.0097
3982.00,0.0097
3981.00,0.0097
3980.00,0.0097
3979.00,0.0097
3978.00,0.0098
3977.00,0.0098
3976.00,0.0099
3975.00,0.0099
3974.00,0.0099
3973.00,0.0098
3972.00,0.0098
3971.00,0.0098
3970.00,0.0098
3969.00,0.0098
3968.00,0.0098
3967.00,0.0098
3966.00,0.0098
3965.00,0.0098
3964.00,0.0099
3963.00,0.0099
3962.00,0.0099
3961.00,0.0099
3960.00,0.0099
3959.00,0.0099
3958.00,0.0099
3957.00,0.0099
3956.00,0.0099
3955.00,0.0099
3954.00,0.0099
3953.00,0.0099
3952.00,0.0100
3951.00,0.0100
3950.00,0.0100
3949.00,0.0100
3948.00,0.0100
3947.00,0.0100
3946.00,0.0101
3945.00,0.0101
3944.00,0.0101
3943.00,0.0100
3942.00,0.0099
3941.00,0.0099
3940.00,0.0099
3939.00,0.0099
3938.00,0.0100
3937.00,0.0100
3936.00,0.0100
3935.00,0.0100
3934.00,0.0101
3933.00,0.0101
3932.00,0.0101
3931.00,0.0100
3930.00,0.0100
3929.00,0.0100
3928.00,0.0100
3927.00,0.0100
3926.00,0.0100
3925.00,0.0100
3924.00,0.0100
3923.00,0.0100
3922.00,0.0100
3921.00,0.0101
3920.00,0.0101
3919.00,0.0101
3918.00,0.0101
3917.00,0.0100
3916.00,0.0100
3915.00,0.0099
3914.00,0.0099
3913.00,0.0099
3912.00,0.0098
3911.00,0.0098
3910.00,0.0097
3909.00,0.0097
3908.00,0.0097
3907.00,0.0097
3906.00,0.0099
3905.00,0.0100
3904.00,0.0102
3903.00,0.0103
3902.00,0.0105
3901.00,0.0106
3900.00,0.0105
3899.00,0.0104
3898.00,0.0103
3897.00,0.0101
3896.00,0.0101
3895.00,0.0101
3894.00,0.0101
3893.00,0.0100
3892.00,0.0100
3891.00,0.0099
3890.00,0.0098
3889.00,0.0099
3888.00,0.0100
3887.00,0.0102
3886.00,0.0102
3885.00,0.0102
3884.00,0.0103
3883.00,0.0103
3882.00,0.0104
3881.00,0.0103
3880.00,0.0102
3879.00,0.0101
3878.00,0.0100
3877.00,0.0101
3876.00,0.0102
3875.00,0.0102
3874.00,0.0102
3873.00,0.0101
3872.00,0.0102
3871.00,0.0103
3870.00,0.0103
3869.00,0.0103
3868.00,0.0103
3867.00,0.0103
3866.00,0.0105
3865.00,0.0105
3864.00,0.0104
3863.00,0.0103
3862.00,0.0102
3861.00,0.0102
3860.00,0.0102
3859.00,0.0100
3858.00,0.0098
3857.00,0.0096
3856.00,0.0095
3855.00,0.0097
3854.00,0.0099
3853.00,0.0100
3852.00,0.0102
3851.00,0.0104
3850.00,0.0105
3849.00,0.0105
3848.00,0.0104
3847.00,0.0103
3846.00,0.0103
3845.00,0.0102
3844.00,0.0102
3843.00,0.0102
3842.00,0.0103
3841.00,0.0103
3840.00,0.0104
3839.00,0.0104
3838.00,0.0105
3837.00,0.0105
3836.00,0.0105
3835.00,0.0105
3834.00,0.0105
3833.00,0.0104
3832.00,0.0104
3831.00,0.0103
3830.00,0.0102
3829.00,0.0102
3828.00,0.0101
3827.00,0.0101
3826.00,0.0100
3825.00,0.0099
3824.00,0.0100
3823.00,0.0102
3822.00,0.0104
3821.00,0.0104
3820.00,0.0103
3819.00,0.0103
3818.00,0.0104
3817.00,0.0105
3816.00,0.0104
3815.00,0.0103
3814.00,0.0101
3813.00,0.0100
3812.00,0.0099
3811.00,0.0098
3810.00,0.0097
3809.00,0.0096
3808.00,0.0097
3807.00,0.0097
3806.00,0.0098
3805.00,0.0100
3804.00,0.0102
3803.00,0.0104
3802.00,0.0105
3801.00,0.0104
3800.00,0.0104
3799.00,0.0104
3798.00,0.0105
3797.00,0.0104
3796.00,0.0103
3795.00,0.0101
3794.00,0.0099
3793.00,0.0099
3792.00,0.0098
3791.00,0.0097
3790.00,0.0097
3789.00,0.0096
3788.00,0.0096
3787.00,0.0097
3786.00,0.0097
3785.00,0.0097
3784.00,0.0097
3783.00,0.0097
3782.00,0.0099
3781.00,0.0100
3780.00,0.0100
3779.00,0.0099
3778.00,0.0098
3777.00,0.0098
3776.00,0.0098
3775.00,0.0098
3774.00,0.0098
3773.00,0.0098
3772.00,0.0098
3771.00,0.0099
3770.00,0.0099
3769.00,0.0100
3768.00,0.0101
3767.00,0.0102
3766.00,0.0103
3765.00,0.0102
3764.00,0.0102
3763.00,0.0102
3762.00,0.0102
3761.00,0.0103
3760.00,0.0103
3759.00,0.0103
3758.00,0.0103
3757.00,0.0103
3756.00,0.0104
3755.00,0.0105
3754.00,0.0106
3753.00,0.0107
3752.00,0.0108
3751.00,0.0110
3750.00,0.0111
3749.00,0.0112
3748.00,0.0112
3747.00,0.0113
3746.00,0.0113
3745.00,0.0113
3744.00,0.0112
3743.00,0.0112
3742.00,0.0112
3741.00,0.0112
3740.00,0.0112
3739.00,0.0113
3738.00,0.0114
3737.00,0.0115
3736.00,0.0115
3735.00,0.0114
3734.00,0.0113
3733.00,0.0112
3732.00,0.0111
3731.00,0.0110
3730.00,0.0109
3729.00,0.0109
3728.00,0.0110
3727.00,0.0110
3726.00,0.0110
3725.00,0.0109
3724.00,0.0109
3723.00,0.0109
3722.00,0.0108
3721.00,0.0108
3720.00,0.0107
3719.00,0.0106
3718.00,0.0106
3717.00,0.0105
3716.00,0.0106
3715.00,0.0106
3714.00,0.0108
3713.00,0.0110
3712.00,0.0112
3711.00,0.0113
3710.00,0.0114
3709.00,0.0115
3708.00,0.0115
3707.00,0.0115
3706.00,0.0115
3705.00,0.0114
3704.00,0.0114
3703.00,0.0114
3702.00,0.0114
3701.00,0.0114
3700.00,0.0114
3699.00,0.0115
3698.00,0.0116
3697.00,0.0116
3696.00,0.0117
3695.00,0.0118
3694.00,0.0119
3693.00,0.0121
3692.00,0.0122
3691.00,0.0124
3690.00,0.0125
3689.00,0.0127
3688.00,0.0129
3687.00,0.0131
3686.00,0.0133
3685.00,0.0134
3684.00,0.0134
3683.00,0.0135
3682.00,0.0136
3681.00,0.0137
3680.00,0.0138
3679.00,0.0140
3678.00,0.0142
3677.00,0.0146
3676.00,0.0150
3675.00,0.0153
3674.00,0.0155
3673.00,0.0159
3672.00,0.0163
3671.00,0.0167
3670.00,0.0168
3669.00,0.0168
3668.00,0.0169
3667.00,0.0171
3666.00,0.0173
3665.00,0.0175
3664.00,0.0176
3663.00,0.0178
3662.00,0.0180
3661.00,0.0182
3660.00,0.0185
3659.00,0.0188
3658.00,0.0192
3657.00,0.0197
3656.00,0.0201
3655.00,0.0206
3654.00,0.0211
3653.00,0.0216
3652.00,0.0222
3651.00,0.0228
3650.00,0.0234
3649.00,0.0239
3648.00,0.0244
3647.00,0.0249
3646.00,0.0252
3645.00,0.0256
3644.00,0.0259
3643.00,0.0262
3642.00,0.0265
3641.00,0.0268
3640.00,0.0271
3639.00,0.0275
3638.00,0.0280
3637.00,0.0285
3636.00,0.0290
3635.00,0.0295
3634.00,0.0300
3633.00,0.0305
3632.00,0.0310
3631.00,0.0316
3630.00,0.0323
3629.00,0.0330
3628.00,0.0336
3627.00,0.0343
3626.00,0.0350
3625.00,0.0357
3624.00,0.0362
3623.00,0.0367
3622.00,0.0371
3621.00,0.0377
3620.00,0.0382
3619.00,0.0388
3618.00,0.0394
3617.00,0.0401
3616.00,0.0408
3615.00,0.0414
3614.00,0.0420
3613.00,0.0425
3612.00,0.0430
3611.00,0.0436
3610.00,0.0442
3609.00,0.0448
3608.00,0.0453
3607.00,0.0458
3606.00,0.0463
3605.00,0.0468
3604.00,0.0474
3603.00,0.0479
3602.00,0.0485
3601.00,0.0490
3600.00,0.0495
3599.00,0.0501
3598.00,0.0507
3597.00,0.0514
3596.00,0.0520
3595.00,0.0526
3594.00,0.0531
3593.00,0.0536
3592.00,0.0542
3591.00,0.0548
3590.00,0.0555
3589.00,0.0561
3588.00,0.0567
3587.00,0.0573
3586.00,0.0580
3585.00,0.0586
3584.00,0.0593
3583.00,0.0599
3582.00,0.0604
3581.00,0.0608
3580.00,0.0612
3579.00,0.0617
3578.00,0.0622
3577.00,0.0627
3576.00,0.0633
3575.00,0.0639
3574.00,0.0645
3573.00,0.0651
3572.00,0.0657
3571.00,0.0664
3570.00,0.0671
3569.00,0.0678
3568.00,0.0685
3567.00,0.0691
3566.00,0.0697
3565.00,0.0703
3564.00,0.0710
3563.00,0.0717
3562.00,0.0722
3561.00,0.0726
3560.00,0.0731
3559.00,0.0735
3558.00,0.0740
3557.00,0.0745
3556.00,0.0751
3555.00,0.0757
3554.00,0.0763
3553.00,0.0768
3552.00,0.0774
3551.00,0.0780
3550.00,0.0787
3549.00,0.0794
3548.00,0.0801
3547.00,0.0807
3546.00,0.0812
3545.00,0.0818
3544.00,0.0823
3543.00,0.0829
3542.00,0.0834
3541.00,0.0840
3540.00,0.0845
3539.00,0.0850
3538.00,0.0856
3537.00,0.0861
3536.00,0.0867
3535.00,0.0872
3534.00,0.0878
3533.00,0.0884
3532.00,0.0889
3531.00,0.0895
3530.00,0.0900
3529.00,0.0905
3528.00,0.0912
3527.00,0.0918
3526.00,0.0925
3525.00,0.0931
3524.00,0.0937
3523.00,0.0942
3522.00,0.0947
3521.00,0.0951
3520.00,0.0956
3519.00,0.0961
3518.00,0.0965
3517.00,0.0971
3516.00,0.0976
3515.00,0.0982
3514.00,0.0988
3513.00,0.0994
3512.00,0.0999
3511.00,0.1005
3510.00,0.1010
3509.00,0.1016
3508.00,0.1022
3507.00,0.1028
3506.00,0.1035
3505.00,0.1041
3504.00,0.1046
3503.00,0.1051
3502.00,0.1056
3501.00,0.1061
3500.00,0.1067
3499.00,0.1072
3498.00,0.1077
3497.00,0.1082
3496.00,0.1087
3495.00,0.1092
3494.00,0.1098
3493.00,0.1103
3492.00,0.1109
3491.00,0.1114
3490.00,0.1119
3489.00,0.1125
3488.00,0.1130
3487.00,0.1135
3486.00,0.1140
3485.00,0.1145
3484.00,0.1150
3483.00,0.1156
3482.00,0.1161
3481.00,0.1166
3480.00,0.1171
3479.00,0.1177
3478.00,0.1182
3477.00,0.1187
3476.00,0.1192
3475.00,0.1197
3474.00,0.1202
3473.00,0.1208
3472.00,0.1213
3471.00,0.1220
3470.00,0.1226
3469.00,0.1231
3468.00,0.1236
3467.00,0.1241
3466.00,0.1245
3465.00,0.1250
3464.00,0.1255
3463.00,0.1260
3462.00,0.1265
3461.00,0.1270
3460.00,0.1276
3459.00,0.1281
3458.00,0.1285
3457.00,0.1290
3456.00,0.1294
3455.00,0.1298
3454.00,0.1302
3453.00,0.1307
3452.00,0.1312
3451.00,0.1317
3450.00,0.1322
3449.00,0.1327
3448.00,0.1332
3447.00,0.1338
3446.00,0.1343
3445.00,0.1348
3444.00,0.1353
3443.00,0.1357
3442.00,0.1361
3441.00,0.1365
3440.00,0.1369
3439.00,0.1375
3438.00,0.1380
3437.00,0.1385
3436.00,0.1390
3435.00,0.1394
3434.00,0.1398
3433.00,0.1402
3432.00,0.1406
3431.00,0.1411
3430.00,0.1416
3429.00,0.1420
3428.00,0.1424
3427.00,0.1427
3426.00,0.1431
3425.00,0.1435
3424.00,0.1439
3423.00,0.1443
3422.00,0.1447
3421.00,0.1451
3420.00,0.1454
3419.00,0.1458
3418.00,0.1462
3417.00,0.1466
3416.00,0.1470
3415.00,0.1474
3414.00,0.1478
3413.00,0.1481
3412.00,0.1485
3411.00,0.1488
3410.00,0.1491
3409.00,0.1495
3408.00,0.1498
3407.00,0.1500
3406.00,0.1504
3405.00,0.1507
3404.00,0.1511
3403.00,0.1515
3402.00,0.1518
3401.00,0.1522
3400.00,0.1525
3399.00,0.1527
3398.00,0.1529
3397.00,0.1532
3396.00,0.1534
3395.00,0.1537
3394.00,0.1540
3393.00,0.1542
3392.00,0.1545
3391.00,0.1547
3390.00,0.1549
3389.00,0.1550
3388.00,0.1552
3387.00,0.1554
3386.00,0.1556
3385.00,0.1558
3384.00,0.1560
3383.00,0.1563
3382.00,0.1565
3381.00,0.1567
3380.00,0.1569
3379.00,0.1570
3378.00,0.1571
3377.00,0.1573
3376.00,0.1574
3375.00,0.1575
3374.00,0.1576
3373.00,0.1578
3372.00,0.1580
3371.00,0.1582
3370.00,0.1585
3369.00,0.1586
3368.00,0.1587
3367.00,0.1588
3366.00,0.1588
3365.00,0.1588
3364.00,0.1588
3363.00,0.1589
3362.00,0.1590
3361.00,0.1591
3360.00,0.1591
3359.00,0.1592
3358.00,0.1592
3357.00,0.1592
3356.00,0.1593
3355.00,0.1593
3354.00,0.1594
3353.00,0.1595
3352.00,0.1596
3351.00,0.1596
3350.00,0.1596
3349.00,0.1596
3348.00,0.1595
3347.00,0.1595
3346.00,0.1595
3345.00,0.1596
3344.00,0.1596
3343.00,0.1596
3342.00,0.1596
3341.00,0.1596
3340.00,0.1595
3339.00,0.1595
3338.00,0.1594
3337.00,0.1593
3336.00,0.1592
3335.00,0.1591
3334.00,0.1591
3333.00,0.1591
3332.00,0.1591
3331.00,0.1591
3330.00,0.1590
3329.00,0.1590
3328.00,0.1589
3327.00,0.1589
3326.00,0.1589
3325.00,0.1589
3324.00,0.1588
3323.00,0.1587
3322.00,0.1587
3321.00,0.1586
3320.00,0.1586
3319.00,0.1585
3318.00,0.1584
3317.00,0.1584
3316.00,0.1583
3315.00,0.1582
3314.00,0.1582
3313.00,0.1581
3312.00,0.1581
3311.00,0.1580
3310.00,0.1580
3309.00,0.1579
3308.00,0.1579
3307.00,0.1578
3306.00,0.1578
3305.00,0.1578
3304.00,0.1577
3303.00,0.1577
3302.00,0.1576
3301.00,0.1575
3300.00,0.1574
3299.00,0.1574
3298.00,0.1573
3297.00,0.1572
3296.00,0.1572
3295.00,0.1571
3294.00,0.1571
3293.00,0.1570
3292.00,0.1569
3291.00,0.1568
3290.00,0.1567
3289.00,0.1566
3288.00,0.1565
3287.00,0.1564
3286.00,0.1562
3285.00,0.1561
3284.00,0.1559
3283.00,0.1557
3282.00,0.1556
3281.00,0.1554
3280.00,0.1552
3279.00,0.1551
3278.00,0.1549
3277.00,0.1547
3276.00,0.1545
3275.00,0.1543
3274.00,0.1540
3273.00,0.1538
3272.00,0.1535
3271.00,0.1532
3270.00,0.1529
3269.00,0.1527
3268.00,0.1524
3267.00,0.1521
3266.00,0.1518
3265.00,0.1515
3264.00,0.1512
3263.00,0.1509
3262.00,0.1506
3261.00,0.1502
3260.00,0.1499
3259.00,0.1495
3258.00,0.1492
3257.00,0.1488
3256.00,0.1485
3255.00,0.1481
3254.00,0.1476
3253.00,0.1472
3252.00,0.1468
3251.00,0.1464
3250.00,0.1461
3249.00,0.1457
3248.00,0.1454
3247.00,0.1450
3246.00,0.1446
3245.00,0.1442
3244.00,0.1438
3243.00,0.1434
3242.00,0.1430
3241.00,0.1426
3240.00,0.1422
3239.00,0.1418
3238.00,0.1414
3237.00,0.1410
3236.00,0.1406
3235.00,0.1402
3234.00,0.1398
3233.00,0.1394
3232.00,0.1390
3231.00,0.1385
3230.00,0.1381
3229.00,0.1376
3228.00,0.1372
3227.00,0.1368
3226.00,0.1364
3225.00,0.1360
3224.00,0.1356
3223.00,0.1351
3222.00,0.1347
3221.00,0.1342
3220.00,0.1337
3219.00,0.1333
3218.00,0.1328
3217.00,0.1324
3216.00,0.1320
3215.00,0.1315
3214.00,0.1310
3213.00,0.1305
3212.00,0.1301
3211.00,0.1296
3210.00,0.1291
3209.00,0.1286
3208.00,0.1281
3207.00,0.1276
3206.00,0.1271
3205.00,0.1267
3204.00,0.1262
3203.00,0.1256
3202.00,0.1251
3201.00,0.1246
3200.00,0.1241
3199.00,0.1236
3198.00,0.1231
3197.00,0.1226
3196.00,0.1220
3195.00,0.1214
3194.00,0.1209
3193.00,0.1203
3192.00,0.1198
3191.00,0.1192
3190.00,0.1187
3189.00,0.1182
3188.00,0.1177
3187.00,0.1171
3186.00,0.1166
3185.00,0.1160
3184.00,0.1155
3183.00,0.1150
3182.00,0.1144
3181.00,0.1139
3180.00,0.1133
3179.00,0.1127
3178.00,0.1121
3177.00,0.1116
3176.00,0.1110
3175.00,0.1104
3174.00,0.1098
3173.00,0.1092
3172.00,0.1086
3171.00,0.1080
3170.00,0.1074
3169.00,0.1069
3168.00,0.1063
3167.00,0.1057
3166.00,0.1051
3165.00,0.1046
3164.00,0.1040
3163.00,0.1035
3162.00,0.1029
3161.00,0.1023
3160.00,0.1018
3159.00,0.1012
3158.00,0.1006
3157.00,0.1000
3156.00,0.0995
3155.00,0.0989
3154.00,0.0984
3153.00,0.0978
3152.00,0.0973
3151.00,0.0967
3150.00,0.0961
3149.00,0.0955
3148.00,0.0950
3147.00,0.0945
3146.00,0.0940
3145.00,0.0934
3144.00,0.0929
3143.00,0.0923
3142.00,0.0917
3141.00,0.0912
3140.00,0.0907
3139.00,0.0903
3138.00,0.0898
3137.00,0.0893
3136.00,0.0888
3135.00,0.0883
3134.00,0.0879
3133.00,0.0874
3132.00,0.0869
3131.00,0.0864
3130.00,0.0859
3129.00,0.0854
3128.00,0.0850
3127.00,0.0845
3126.00,0.0840
3125.00,0.0836
3124.00,0.0832
3123.00,0.0827
3122.00,0.0823
3121.00,0.0818
3120.00,0.0814
3119.00,0.0810
3118.00,0.0805
3117.00,0.0801
3116.00,0.0797
3115.00,0.0793
3114.00,0.0789
3113.00,0.0785
3112.00,0.0781
3111.00,0.0777
3110.00,0.0774
3109.00,0.0770
3108.00,0.0767
3107.00,0.0764
3106.00,0.0760
3105.00,0.0757
3104.00,0.0753
3103.00,0.0749
3102.00,0.0746
3101.00,0.0742
3100.00,0.0739
3099.00,0.0736
3098.00,0.0733
3097.00,0.0730
3096.00,0.0727
3095.00,0.0723
3094.00,0.0720
3093.00,0.0717
3092.00,0.0714
3091.00,0.0711
3090.00,0.0708
3089.00,0.0705
3088.00,0.0702
3087.00,0.0699
3086.00,0.0696
3085.00,0.0693
3084.00,0.0690
3083.00,0.0687
3082.00,0.0685
3081.00,0.0682
3080.00,0.0680
3079.00,0.0677
3078.00,0.0675
3077.00,0.0672
3076.00,0.0669
3075.00,0.0666
3074.00,0.0663
3073.00,0.0660
3072.00,0.0656
3071.00,0.0653
3070.00,0.0651
3069.00,0.0648
3068.00,0.0645
3067.00,0.0642
3066.00,0.0639
3065.00,0.0636
3064.00,0.0633
3063.00,0.0630
3062.00,0.0627
3061.00,0.0624
3060.00,0.0621
3059.00,0.0617
3058.00,0.0614
3057.00,0.0611
3056.00,0.0608
3055.00,0.0605
3054.00,0.0601
3053.00,0.0598
3052.00,0.0595
3051.00,0.0592
3050.00,0.0588
3049.00,0.0585
3048.00,0.0582
3047.00,0.0579
3046.00,0.0576
3045.00,0.0573
3044.00,0.0570
3043.00,0.0567
3042.00,0.0564
3041.00,0.0561
3040.00,0.0557
3039.00,0.0554
3038.00,0.0551
3037.00,0.0548
3036.00,0.0545
3035.00,0.0542
3034.00,0.0539
3033.00,0.0537
3032.00,0.0534
3031.00,0.0532
3030.00,0.0529
3029.00,0.0527
3028.00,0.0524
3027.00,0.0521
3026.00,0.0519
3025.00,0.0516
3024.00,0.0514
3023.00,0.0512
3022.00,0.0510
3021.00,0.0507
3020.00,0.0505
3019.00,0.0503
3018.00,0.0501
3017.00,0.0500
3016.00,0.0498
3015.00,0.0496
3014.00,0.0494
3013.00,0.0492
3012.00,0.0491
3011.00,0.0489
3010.00,0.0487
3009.00,0.0485
3008.00,0.0483
3007.00,0.0482
3006.00,0.0480
3005.00,0.0479
3004.00,0.0477
3003.00,0.0476
3002.00,0.0474
3001.00,0.0473
3000.00,0.0472
2999.00,0.0471
2998.00,0.0470
2997.00,0.0469
2996.00,0.0469
2995.00,0.0469
2994.00,0.0468
2993.00,0.0468
2992.00,0.0469
2991.00,0.0469
2990.00,0.0470
2989.00,0.0471
2988.00,0.0472
2987.00,0.0474
2986.00,0.0475
2985.00,0.0476
2984.00,0.0477
2983.00,0.0478
2982.00,0.0479
2981.00,0.0481
2980.00,0.0483
2979.00,0.0485
2978.00,0.0487
2977.00,0.0489
2976.00,0.0491
2975.00,0.0493
2974.00,0.0495
2973.00,0.0498
2972.00,0.0500
2971.00,0.0502
2970.00,0.0504
2969.00,0.0506
2968.00,0.0508
2967.00,0.0510
2966.00,0.0511
2965.00,0.0513
2964.00,0.0515
2963.00,0.0516
2962.00,0.0517
2961.00,0.0518
2960.00,0.0519
2959.00,0.0519
2958.00,0.0518
2957.00,0.0518
2956.00,0.0517
2955.00,0.0516
2954.00,0.0515
2953.00,0.0514
2952.00,0.0513
2951.00,0.0512
2950.00,0.0512
2949.00,0.0511
2948.00,0.0511
2947.00,0.0511
2946.00,0.0511
2945.00,0.0511
2944.00,0.0512
2943.00,0.0513
2942.00,0.0514
2941.00,0.0516
2940.00,0.0517
2939.00,0.0519
2938.00,0.0521
2937.00,0.0523
2936.00,0.0525
2935.00,0.0526
2934.00,0.0527
2933.00,0.0528
2932.00,0.0529
2931.00,0.0529
2930.00,0.0530
2929.00,0.0531
2928.00,0.0531
2927.00,0.0532
2926.00,0.0532
2925.00,0.0531
2924.00,0.0531
2923.00,0.0530
2922.00,0.0528
2921.00,0.0526
2920.00,0.0523
2919.00,0.0519
2918.00,0.0515
2917.00,0.0511
2916.00,0.0506
2915.00,0.0502
2914.00,0.0497
2913.00,0.0492
2912.00,0.0488
2911.00,0.0484
2910.00,0.0480
2909.00,0.0476
2908.00,0.0473
2907.00,0.0470
2906.00,0.0467
2905.00,0.0464
2904.00,0.0461
2903.00,0.0458
2902.00,0.0456
2901.00,0.0453
2900.00,0.0450
2899.00,0.0448
2898.00,0.0445
2897.00,0.0442
2896.00,0.0440
2895.00,0.0437
2894.00,0.0435
2893.00,0.0432
2892.00,0.0430
2891.00,0.0428
2890.00,0.0425
2889.00,0.0423
2888.00,0.0421
2887.00,0.0419
2886.00,0.0417
2885.00,0.0415
2884.00,0.0413
2883.00,0.0411
2882.00,0.0409
2881.00,0.0408
2880.00,0.0406
2879.00,0.0405
2878.00,0.0404
2877.00,0.0403
2876.00,0.0401
2875.00,0.0400
2874.00,0.0398
2873.00,0.0396
2872.00,0.0394
2871.00,0.0391
2870.00,0.0389
2869.00,0.0386
2868.00,0.0383
2867.00,0.0379
2866.00,0.0376
2865.00,0.0374
2864.00,0.0373
2863.00,0.0371
2862.00,0.0370
2861.00,0.0370
2860.00,0.0369
2859.00,0.0369
2858.00,0.0369
2857.00,0.0369
2856.00,0.0369
2855.00,0.0369
2854.00,0.0369
2853.00,0.0368
2852.00,0.0367
2851.00,0.0365
2850.00,0.0362
2849.00,0.0358
2848.00,0.0353
2847.00,0.0348
2846.00,0.0342
2845.00,0.0337
2844.00,0.0332
2843.00,0.0328
2842.00,0.0324
2841.00,0.0320
2840.00,0.0316
2839.00,0.0313
2838.00,0.0311
2837.00,0.0308
2836.00,0.0306
2835.00,0.0304
2834.00,0.0303
2833.00,0.0301
2832.00,0.0299
2831.00,0.0298
2830.00,0.0296
2829.00,0.0294
2828.00,0.0293
2827.00,0.0292
2826.00,0.0290
2825.00,0.0289
2824.00,0.0288
2823.00,0.0287
2822.00,0.0286
2821.00,0.0284
2820.00,0.0283
2819.00,0.0281
2818.00,0.0280
2817.00,0.0279
2816.00,0.0278
2815.00,0.0277
2814.00,0.0276
2813.00,0.0275
2812.00,0.0273
2811.00,0.0272
2810.00,0.0270
2809.00,0.0269
2808.00,0.0268
2807.00,0.0267
2806.00,0.0266
2805.00,0.0265
2804.00,0.0264
2803.00,0.0264
2802.00,0.0263
2801.00,0.0261
2800.00,0.0260
2799.00,0.0259
2798.00,0.0257
2797.00,0.0256
2796.00,0.0255
2795.00,0.0255
2794.00,0.0254
2793.00,0.0253
2792.00,0.0252
2791.00,0.0251
2790.00,0.0250
2789.00,0.0250
2788.00,0.0249
2787.00,0.0248
2786.00,0.0247
2785.00,0.0247
2784.00,0.0246
2783.00,0.0245
2782.00,0.0245
2781.00,0.0244
2780.00,0.0243
2779.00,0.0242
2778.00,0.0241
2777.00,0.0240
2776.00,0.0239
2775.00,0.0239
2774.00,0.0238
2773.00,0.0237
2772.00,0.0237
2771.00,0.0236
2770.00,0.0235
2769.00,0.0234
2768.00,0.0234
2767.00,0.0233
2766.00,0.0233
2765.00,0.0232
2764.00,0.0232
2763.00,0.0231
2762.00,0.0230
2761.00,0.0230
2760.00,0.0229
2759.00,0.0228
2758.00,0.0228
2757.00,0.0227
2756.00,0.0227
2755.00,0.0226
2754.00,0.0226
2753.00,0.0225
2752.00,0.0224
2751.00,0.0224
2750.00,0.0223
2749.00,0.0223
2748.00,0.0223
2747.00,0.0222
2746.00,0.0222
2745.00,0.0221
2744.00,0.0220
2743.00,0.0220
2742.00,0.0219
2741.00,0.0219
2740.00,0.0218
2739.00,0.0217
2738.00,0.0217
2737.00,0.0217
2736.00,0.0216
2735.00,0.0216
2734.00,0.0215
2733.00,0.0215
2732.00,0.0215
2731.00,0.0214
2730.00,0.0214
2729.00,0.0213
2728.00,0.0212
2727.00,0.0212
2726.00,0.0211
2725.00,0.0210
2724.00,0.0210
2723.00,0.0209
2722.00,0.0209
2721.00,0.0208
2720.00,0.0208
2719.00,0.0207
2718.00,0.0207
2717.00,0.0206
2716.00,0.0205
2715.00,0.0205
2714.00,0.0204
2713.00,0.0204
2712.00,0.0203
2711.00,0.0203
2710.00,0.0203
2709.00,0.0202
2708.00,0.0202
2707.00,0.0201
2706.00,0.0201
2705.00,0.0201
2704.00,0.0200
2703.00,0.0200
2702.00,0.0200
2701.00,0.0199
2700.00,0.0198
2699.00,0.0198
2698.00,0.0197
2697.00,0.0197
2696.00,0.0197
2695.00,0.0196
2694.00,0.0196
2693.00,0.0196
2692.00,0.0195
2691.00,0.0195
2690.00,0.0195
2689.00,0.0194
2688.00,0.0194
2687.00,0.0194
2686.00,0.0193
2685.00,0.0193
2684.00,0.0193
2683.00,0.0193
2682.00,0.0193
2681.00,0.0192
2680.00,0.0192
2679.00,0.0191
2678.00,0.0191
2677.00,0.0190
2676.00,0.0190
2675.00,0.0189
2674.00,0.0189
2673.00,0.0188
2672.00,0.0188
2671.00,0.0188
2670.00,0.0188
2669.00,0.0188
2668.00,0.0188
2667.00,0.0188
2666.00,0.0187
2665.00,0.0187
2664.00,0.0187
2663.00,0.0187
2662.00,0.0187
2661.00,0.0187
2660.00,0.0187
2659.00,0.0187
2658.00,0.0186
2657.00,0.0186
2656.00,0.0186
2655.00,0.0185
2654.00,0.0185
2653.00,0.0184
2652.00,0.0184
2651.00,0.0184
2650.00,0.0183
2649.00,0.0183
2648.00,0.0183
2647.00,0.0182
2646.00,0.0182
2645.00,0.0182
2644.00,0.0181
2643.00,0.0181
2642.00,0.0180
2641.00,0.0180
2640.00,0.0179
2639.00,0.0178
2638.00,0.0178
2637.00,0.0177
2636.00,0.0176
2635.00,0.0176
2634.00,0.0175
2633.00,0.0175
2632.00,0.0175
2631.00,0.0174
2630.00,0.0174
2629.00,0.0174
2628.00,0.0174
2627.00,0.0173
2626.00,0.0172
2625.00,0.0172
2624.00,0.0172
2623.00,0.0171
2622.00,0.0171
2621.00,0.0170
2620.00,0.0169
2619.00,0.0168
2618.00,0.0167
2617.00,0.0167
2616.00,0.0167
2615.00,0.0167
2614.00,0.0167
2613.00,0.0167
2612.00,0.0166
2611.00,0.0165
2610.00,0.0164
2609.00,0.0164
2608.00,0.0163
2607.00,0.0163
2606.00,0.0163
2605.00,0.0163
2604.00,0.0162
2603.00,0.0162
2602.00,0.0161
2601.00,0.0161
2600.00,0.0161
2599.00,0.0160
2598.00,0.0160
2597.00,0.0160
2596.00,0.0160
2595.00,0.0159
2594.00,0.0159
2593.00,0.0159
2592.00,0.0158
2591.00,0.0158
2590.00,0.0158
2589.00,0.0157
2588.00,0.0157
2587.00,0.0156
2586.00,0.0155
2585.00,0.0155
2584.00,0.0155
2583.00,0.0155
2582.00,0.0155
2581.00,0.0155
2580.00,0.0155
2579.00,0.0155
2578.00,0.0155
2577.00,0.0155
2576.00,0.0154
2575.00,0.0153
2574.00,0.0152
2573.00,0.0151
2572.00,0.0151
2571.00,0.0150
2570.00,0.0151
2569.00,0.0151
2568.00,0.0151
2567.00,0.0150
2566.00,0.0149
2565.00,0.0149
2564.00,0.0149
2563.00,0.0150
2562.00,0.0150
2561.00,0.0151
2560.00,0.0151
2559.00,0.0150
2558.00,0.0150
2557.00,0.0149
2556.00,0.0148
2555.00,0.0147
2554.00,0.0147
2553.00,0.0148
2552.00,0.0148
2551.00,0.0148
2550.00,0.0148
2549.00,0.0148
2548.00,0.0148
2547.00,0.0148
2546.00,0.0147
2545.00,0.0147
2544.00,0.0146
2543.00,0.0146
2542.00,0.0145
2541.00,0.0145
2540.00,0.0145
2539.00,0.0145
2538.00,0.0145
2537.00,0.0145
2536.00,0.0144
2535.00,0.0144
2534.00,0.0144
2533.00,0.0144
2532.00,0.0144
2531.00,0.0144
2530.00,0.0144
2529.00,0.0143
2528.00,0.0143
2527.00,0.0144
2526.00,0.0144
2525.00,0.0144
2524.00,0.0144
2523.00,0.0144
2522.00,0.0143
2521.00,0.0143
2520.00,0.0142
2519.00,0.0141
2518.00,0.0141
2517.00,0.0140
2516.00,0.0140
2515.00,0.0140
2514.00,0.0140
2513.00,0.0140
2512.00,0.0140
2511.00,0.0141
2510.00,0.0141
2509.00,0.0141
2508.00,0.0141
2507.00,0.0140
2506.00,0.0140
2505.00,0.0140
2504.00,0.0140
2503.00,0.0140
2502.00,0.0140
2501.00,0.0139
2500.00,0.0139
2499.00,0.0139
2498.00,0.0139
2497.00,0.0139
2496.00,0.0139
2495.00,0.0140
2494.00,0.0140
2493.00,0.0140
2492.00,0.0140
2491.00,0.0140
2490.00,0.0141
2489.00,0.0141
2488.00,0.0140
2487.00,0.0140
2486.00,0.0140
2485.00,0.0139
2484.00,0.0139
2483.00,0.0138
2482.00,0.0137
2481.00,0.0137
2480.00,0.0137
2479.00,0.0136
2478.00,0.0136
2477.00,0.0135
2476.00,0.0135
2475.00,0.0135
2474.00,0.0136
2473.00,0.0137
2472.00,0.0137
2471.00,0.0137
2470.00,0.0136
2469.00,0.0135
2468.00,0.0135
2467.00,0.0135
2466.00,0.0135
2465.00,0.0135
2464.00,0.0135
2463.00,0.0136
2462.00,0.0136
2461.00,0.0136
2460.00,0.0136
2459.00,0.0135
2458.00,0.0136
2457.00,0.0136
2456.00,0.0136
2455.00,0.0136
2454.00,0.0136
2453.00,0.0136
2452.00,0.0136
2451.00,0.0136
2450.00,0.0136
2449.00,0.0136
2448.00,0.0135
2447.00,0.0135
2446.00,0.0134
2445.00,0.0134
2444.00,0.0134
2443.00,0.0134
2442.00,0.0135
2441.00,0.0135
2440.00,0.0135
2439.00,0.0135
2438.00,0.0135
2437.00,0.0134
2436.00,0.0134
2435.00,0.0133
2434.00,0.0133
2433.00,0.0133
2432.00,0.0133
2431.00,0.0133
2430.00,0.0132
2429.00,0.0132
2428.00,0.0132
2427.00,0.0132
2426.00,0.0132
2425.00,0.0133
2424.00,0.0133
2423.00,0.0132
2422.00,0.0132
2421.00,0.0131
2420.00,0.0131
2419.00,0.0131
2418.00,0.0131
2417.00,0.0131
2416.00,0.0130
2415.00,0.0130
2414.00,0.0130
2413.00,0.0130
2412.00,0.0130
2411.00,0.0131
2410.00,0.0131
2409.00,0.0131
2408.00,0.0131
2407.00,0.0130
2406.00,0.0130
2405.00,0.0130
2404.00,0.0130
2403.00,0.0130
2402.00,0.0130
2401.00,0.0129
2400.00,0.0129
2399.00,0.0129
2398.00,0.0129
2397.00,0.0130
2396.00,0.0130
2395.00,0.0130
2394.00,0.0130
2393.00,0.0130
2392.00,0.0130
2391.00,0.0130
2390.00,0.0130
2389.00,0.0130
2388.00,0.0130
2387.00,0.0130
2386.00,0.0130
2385.00,0.0130
2384.00,0.0131
2383.00,0.0131
2382.00,0.0131
2381.00,0.0131
2380.00,0.0131
2379.00,0.0130
2378.00,0.0131
2377.00,0.0131
2376.00,0.0131
2375.00,0.0132
2374.00,0.0132
2373.00,0.0132
2372.00,0.0132
2371.00,0.0132
2370.00,0.0132
2369.00,0.0132
2368.00,0.0131
2367.00,0.0131
2366.00,0.0131
2365.00,0.0132
2364.00,0.0133
2363.00,0.0134
2362.00,0.0134
2361.00,0.0134
2360.00,0.0134
2359.00,0.0134
2358.00,0.0134
2357.00,0.0135
2356.00,0.0135
2355.00,0.0136
2354.00,0.0136
2353.00,0.0135
2352.00,0.0134
2351.00,0.0133
2350.00,0.0133
2349.00,0.0135
2348.00,0.0137
2347.00,0.0140
2346.00,0.0142
2345.00,0.0142
2344.00,0.0141
2343.00,0.0140
2342.00,0.0141
2341.00,0.0141
2340.00,0.0141
2339.00,0.0141
2338.00,0.0141
2337.00,0.0141
2336.00,0.0141
2335.00,0.0141
2334.00,0.0141
2333.00,0.0141
2332.00,0.0140
2331.00,0.0139
2330.00,0.0138
2329.00,0.0138
2328.00,0.0140
2327.00,0.0144
2326.00,0.0149
2325.00,0.0154
2324.00,0.0156
2323.00,0.0156
2322.00,0.0153
2321.00,0.0151
2320.00,0.0149
2319.00,0.0147
2318.00,0.0146
2317.00,0.0146
2316.00,0.0146
2315.00,0.0146
2314.00,0.0146
2313.00,0.0145
2312.00,0.0145
2311.00,0.0145
2310.00,0.0145
2309.00,0.0144
2308.00,0.0144
2307.00,0.0143
2306.00,0.0142
2305.00,0.0142
2304.00,0.0142
2303.00,0.0143
2302.00,0.0143
2301.00,0.0143
2300.00,0.0144
2299.00,0.0145
2298.00,0.0145
2297.00,0.0146
2296.00,0.0146
2295.00,0.0147
2294.00,0.0147
2293.00,0.0147
2292.00,0.0148
2291.00,0.0148
2290.00,0.0149
2289.00,0.0150
2288.00,0.0151
2287.00,0.0151
2286.00,0.0150
2285.00,0.0150
2284.00,0.0151
2283.00,0.0151
2282.00,0.0150
2281.00,0.0150
2280.00,0.0149
2279.00,0.0149
2278.00,0.0148
2277.00,0.0147
2276.00,0.0146
2275.00,0.0145
2274.00,0.0145
2273.00,0.0145
2272.00,0.0146
2271.00,0.0147
2270.00,0.0148
2269.00,0.0148
2268.00,0.0147
2267.00,0.0146
2266.00,0.0145
2265.00,0.0144
2264.00,0.0143
2263.00,0.0142
2262.00,0.0142
2261.00,0.0141
2260.00,0.0141
2259.00,0.0141
2258.00,0.0141
2257.00,0.0141
2256.00,0.0141
2255.00,0.0140
2254.00,0.0139
2253.00,0.0138
2252.00,0.0138
2251.00,0.0137
2250.00,0.0137
2249.00,0.0137
2248.00,0.0137
2247.00,0.0138
2246.00,0.0139
2245.00,0.0139
2244.00,0.0139
2243.00,0.0139
2242.00,0.0139
2241.00,0.0140
2240.00,0.0141
2239.00,0.0141
2238.00,0.0140
2237.00,0.0140
2236.00,0.0140
2235.00,0.0140
2234.00,0.0140
2233.00,0.0140
2232.00,0.0139
2231.00,0.0139
2230.00,0.0138
2229.00,0.0138
2228.00,0.0138
2227.00,0.0138
2226.00,0.0139
2225.00,0.0139
2224.00,0.0139
2223.00,0.0139
2222.00,0.0139
2221.00,0.0141
2220.00,0.0141
2219.00,0.0141
2218.00,0.0141
2217.00,0.0141
2216.00,0.0142
2215.00,0.0142
2214.00,0.0142
2213.00,0.0141
2212.00,0.0140
2211.00,0.0140
2210.00,0.0139
2209.00,0.0140
2208.00,0.0140
2207.00,0.0140
2206.00,0.0140
2205.00,0.0140
2204.00,0.0140
2203.00,0.0140
2202.00,0.0139
2201.00,0.0137
2200.00,0.0136
2199.00,0.0135
2198.00,0.0135
2197.00,0.0135
2196.00,0.0135
2195.00,0.0136
2194.00,0.0137
2193.00,0.0137
2192.00,0.0137
2191.00,0.0137
2190.00,0.0137
2189.00,0.0138
2188.00,0.0138
2187.00,0.0138
2186.00,0.0138
2185.00,0.0138
2184.00,0.0137
2183.00,0.0135
2182.00,0.0133
2181.00,0.0133
2180.00,0.0132
2179.00,0.0131
2178.00,0.0130
2177.00,0.0129
2176.00,0.0129
2175.00,0.0128
2174.00,0.0128
2173.00,0.0128
2172.00,0.0128
2171.00,0.0130
2170.00,0.0133
2169.00,0.0138
2168.00,0.0141
2167.00,0.0144
2166.00,0.0145
2165.00,0.0145
2164.00,0.0145
2163.00,0.0144
2162.00,0.0142
2161.00,0.0135
2160.00,0.0123
2159.00,0.0107
2158.00,0.0092
2157.00,0.0085
2156.00,0.0086
2155.00,0.0091
2154.00,0.0096
2153.00,0.0102
2152.00,0.0108
2151.00,0.0112
2150.00,0.0115
2149.00,0.0116
2148.00,0.0116
2147.00,0.0115
2146.00,0.0115
2145.00,0.0115
2144.00,0.0116
2143.00,0.0117
2142.00,0.0116
2141.00,0.0116
2140.00,0.0116
2139.00,0.0117
2138.00,0.0117
2137.00,0.0118
2136.00,0.0118
2135.00,0.0117
2134.00,0.0117
2133.00,0.0118
2132.00,0.0121
2131.00,0.0123
2130.00,0.0125
2129.00,0.0127
2128.00,0.0129
2127.00,0.0131
2126.00,0.0133
2125.00,0.0135
2124.00,0.0136
2123.00,0.0137
2122.00,0.0138
2121.00,0.0139
2120.00,0.0140
2119.00,0.0140
2118.00,0.0141
2117.00,0.0142
2116.00,0.0143
2115.00,0.0144
2114.00,0.0145
2113.00,0.0145
2112.00,0.0145
2111.00,0.0145
2110.00,0.0146
2109.00,0.0147
2108.00,0.0147
2107.00,0.0147
2106.00,0.0147
2105.00,0.0146
2104.00,0.0146
2103.00,0.0146
2102.00,0.0146
2101.00,0.0146
2100.00,0.0146
2099.00,0.0146
2098.00,0.0145
2097.00,0.0145
2096.00,0.0143
2095.00,0.0141
2094.00,0.0139
2093.00,0.0138
2092.00,0.0138
2091.00,0.0140
2090.00,0.0141
2089.00,0.0141
2088.00,0.0142
2087.00,0.0142
2086.00,0.0142
2085.00,0.0143
2084.00,0.0145
2083.00,0.0146
2082.00,0.0145
2081.00,0.0144
2080.00,0.0143
2079.00,0.0142
2078.00,0.0142
2077.00,0.0141
2076.00,0.0140
2075.00,0.0139
2074.00,0.0139
2073.00,0.0139
2072.00,0.0139
2071.00,0.0139
2070.00,0.0137
2069.00,0.0136
2068.00,0.0135
2067.00,0.0133
2066.00,0.0132
2065.00,0.0131
2064.00,0.0130
2063.00,0.0129
2062.00,0.0129
2061.00,0.0131
2060.00,0.0133
2059.00,0.0135
2058.00,0.0135
2057.00,0.0134
2056.00,0.0132
2055.00,0.0129
2054.00,0.0128
2053.00,0.0129
2052.00,0.0132
2051.00,0.0133
2050.00,0.0132
2049.00,0.0127
2048.00,0.0123
2047.00,0.0120
2046.00,0.0119
2045.00,0.0118
2044.00,0.0117
2043.00,0.0117
2042.00,0.0116
2041.00,0.0116
2040.00,0.0117
2039.00,0.0117
2038.00,0.0118
2037.00,0.0119
2036.00,0.0119
2035.00,0.0117
2034.00,0.0115
2033.00,0.0114
2032.00,0.0114
2031.00,0.0114
2030.00,0.0112
2029.00,0.0109
2028.00,0.0106
2027.00,0.0104
2026.00,0.0103
2025.00,0.0103
2024.00,0.0105
2023.00,0.0106
2022.00,0.0107
2021.00,0.0107
2020.00,0.0106
2019.00,0.0104
2018.00,0.0101
2017.00,0.0099
2016.00,0.0098
2015.00,0.0099
2014.00,0.0100
2013.00,0.0102
2012.00,0.0103
2011.00,0.0103
2010.00,0.0102
2009.00,0.0100
2008.00,0.0098
2007.00,0.0095
2006.00,0.0093
2005.00,0.0093
2004.00,0.0094
2003.00,0.0096
2002.00,0.0099
2001.00,0.0102
2000.00,0.0106
1999.00,0.0108
1998.00,0.0109
1997.00,0.0110
1996.00,0.0110
1995.00,0.0110
1994.00,0.0109
1993.00,0.0108
1992.00,0.0108
1991.00,0.0108
1990.00,0.0109
1989.00,0.0110
1988.00,0.0111
1987.00,0.0111
1986.00,0.0110
1985.00,0.0110
1984.00,0.0111
1983.00,0.0112
1982.00,0.0112
1981.00,0.0113
1980.00,0.0113
1979.00,0.0112
1978.00,0.0109
1977.00,0.0106
1976.00,0.0103
1975.00,0.0100
1974.00,0.0099
1973.00,0.0099
1972.00,0.0099
1971.00,0.0100
1970.00,0.0099
1969.00,0.0098
1968.00,0.0096
1967.00,0.0095
1966.00,0.0096
1965.00,0.0098
1964.00,0.0100
1963.00,0.0101
1962.00,0.0101
1961.00,0.0101
1960.00,0.0100
1959.00,0.0098
1958.00,0.0096
1957.00,0.0095
1956.00,0.0096
1955.00,0.0097
1954.00,0.0098
1953.00,0.0098
1952.00,0.0098
1951.00,0.0099
1950.00,0.0099
1949.00,0.0098
1948.00,0.0097
1947.00,0.0096
1946.00,0.0095
1945.00,0.0095
1944.00,0.0096
1943.00,0.0096
1942.00,0.0097
1941.00,0.0099
1940.00,0.0102
1939.00,0.0104
1938.00,0.0105
1937.00,0.0104
1936.00,0.0104
1935.00,0.0103
1934.00,0.0103
1933.00,0.0103
1932.00,0.0103
1931.00,0.0103
1930.00,0.0103
1929.00,0.0104
1928.00,0.0105
1927.00,0.0105
1926.00,0.0103
1925.00,0.0102
1924.00,0.0100
1923.00,0.0099
1922.00,0.0100
1921.00,0.0103
1920.00,0.0105
1919.00,0.0107
1918.00,0.0107
1917.00,0.0107
1916.00,0.0108
1915.00,0.0108
1914.00,0.0107
1913.00,0.0106
1912.00,0.0106
1911.00,0.0106
1910.00,0.0106
1909.00,0.0105
1908.00,0.0105
1907.00,0.0104
1906.00,0.0104
1905.00,0.0103
1904.00,0.0103
1903.00,0.0103
1902.00,0.0103
1901.00,0.0103
1900.00,0.0103
1899.00,0.0103
1898.00,0.0103
1897.00,0.0103
1896.00,0.0103
1895.00,0.0104
1894.00,0.0104
1893.00,0.0104
1892.00,0.0103
1891.00,0.0102
1890.00,0.0101
1889.00,0.0100
1888.00,0.0101
1887.00,0.0101
1886.00,0.0101
1885.00,0.0101
1884.00,0.0101
1883.00,0.0102
1882.00,0.0102
1881.00,0.0103
1880.00,0.0103
1879.00,0.0102
1878.00,0.0100
1877.00,0.0099
1876.00,0.0099
1875.00,0.0100
1874.00,0.0101
1873.00,0.0101
1872.00,0.0102
1871.00,0.0101
1870.00,0.0100
1869.00,0.0098
1868.00,0.0098
1867.00,0.0098
1866.00,0.0099
1865.00,0.0100
1864.00,0.0100
1863.00,0.0100
1862.00,0.0098
1861.00,0.0098
1860.00,0.0098
1859.00,0.0098
1858.00,0.0099
1857.00,0.0099
1856.00,0.0100
1855.00,0.0100
1854.00,0.0100
1853.00,0.0099
1852.00,0.0099
1851.00,0.0098
1850.00,0.0097
1849.00,0.0096
1848.00,0.0095
1847.00,0.0096
1846.00,0.0097
1845.00,0.0098
1844.00,0.0099
1843.00,0.0098
1842.00,0.0098
1841.00,0.0098
1840.00,0.0099
1839.00,0.0099
1838.00,0.0099
1837.00,0.0099
1836.00,0.0098
1835.00,0.0098
1834.00,0.0097
1833.00,0.0097
1832.00,0.0098
1831.00,0.0098
1830.00,0.0098
1829.00,0.0097
1828.00,0.0097
1827.00,0.0097
1826.00,0.0097
1825.00,0.0096
1824.00,0.0096
1823.00,0.0097
1822.00,0.0097
1821.00,0.0098
1820.00,0.0098
1819.00,0.0098
1818.00,0.0097
1817.00,0.0096
1816.00,0.0096
1815.00,0.0096
1814.00,0.0097
1813.00,0.0097
1812.00,0.0098
1811.00,0.0098
1810.00,0.0098
1809.00,0.0098
1808.00,0.0098
1807.00,0.0098
1806.00,0.0098
1805.00,0.0098
1804.00,0.0097
1803.00,0.0096
1802.00,0.0095
1801.00,0.0095
1800.00,0.0097
1799.00,0.0098
1798.00,0.0098
1797.00,0.0098
1796.00,0.0097
1795.00,0.0097
1794.00,0.0098
1793.00,0.0099
1792.00,0.0099
1791.00,0.0098
1790.00,0.0097
1789.00,0.0097
1788.00,0.0098
1787.00,0.0098
1786.00,0.0097
1785.00,0.0096
1784.00,0.0096
1783.00,0.0096
1782.00,0.0096
1781.00,0.0096
1780.00,0.0097
1779.00,0.0097
1778.00,0.0097
1777.00,0.0097
1776.00,0.0097
1775.00,0.0097
1774.00,0.0098
1773.00,0.0099
1772.00,0.0100
1771.00,0.0099
1770.00,0.0098
1769.00,0.0098
1768.00,0.0098
1767.00,0.0097
1766.00,0.0096
1765.00,0.0096
1764.00,0.0096
1763.00,0.0096
1762.00,0.0096
1761.00,0.0096
1760.00,0.0097
1759.00,0.0099
1758.00,0.0101
1757.00,0.0103
1756.00,0.0105
1755.00,0.0107
1754.00,0.0109
1753.00,0.0111
1752.00,0.0114
1751.00,0.0117
1750.00,0.0119
1749.00,0.0121
1748.00,0.0125
1747.00,0.0128
1746.00,0.0130
1745.00,0.0133
1744.00,0.0135
1743.00,0.0137
1742.00,0.0140
1741.00,0.0144
1740.00,0.0148
1739.00,0.0149
1738.00,0.0150
1737.00,0.0151
1736.00,0.0154
1735.00,0.0158
1734.00,0.0159
1733.00,0.0159
1732.00,0.0160
1731.00,0.0160
1730.00,0.0161
1729.00,0.0162
1728.00,0.0164
1727.00,0.0166
1726.00,0.0168
1725.00,0.0169
1724.00,0.0171
1723.00,0.0173
1722.00,0.0175
1721.00,0.0176
1720.00,0.0179
1719.00,0.0182
1718.00,0.0185
1717.00,0.0190
1716.00,0.0194
1715.00,0.0197
1714.00,0.0200
1713.00,0.0204
1712.00,0.0208
1711.00,0.0213
1710.00,0.0217
1709.00,0.0222
1708.00,0.0228
1707.00,0.0234
1706.00,0.0241
1705.00,0.0249
1704.00,0.0256
1703.00,0.0263
1702.00,0.0274
1701.00,0.0288
1700.00,0.0306
1699.00,0.0321
1698.00,0.0334
1697.00,0.0349
1696.00,0.0368
1695.00,0.0387
1694.00,0.0402
1693.00,0.0416
1692.00,0.0430
1691.00,0.0446
1690.00,0.0463
1689.00,0.0481
1688.00,0.0499
1687.00,0.0517
1686.00,0.0535
1685.00,0.0559
1684.00,0.0586
1683.00,0.0612
1682.00,0.0632
1681.00,0.0649
1680.00,0.0667
1679.00,0.0685
1678.00,0.0703
1677.00,0.0722
1676.00,0.0746
1675.00,0.0771
1674.00,0.0795
1673.00,0.0816
1672.00,0.0835
1671.00,0.0855
1670.00,0.0878
1669.00,0.0905
1668.00,0.0932
1667.00,0.0956
1666.00,0.0976
1665.00,0.0996
1664.00,0.1018
1663.00,0.1044
1662.00,0.1072
1661.00,0.1098
1660.00,0.1122
1659.00,0.1144
1658.00,0.1163
1657.00,0.1179
1656.00,0.1192
1655.00,0.1205
1654.00,0.1225
1653.00,0.1257
1652.00,0.1290
1651.00,0.1308
1650.00,0.1314
1649.00,0.1316
1648.00,0.1320
1647.00,0.1328
1646.00,0.1340
1645.00,0.1352
1644.00,0.1359
1643.00,0.1363
1642.00,0.1363
1641.00,0.1363
1640.00,0.1364
1639.00,0.1364
1638.00,0.1362
1637.00,0.1359
1636.00,0.1358
1635.00,0.1358
1634.00,0.1356
1633.00,0.1350
1632.00,0.1340
1631.00,0.1328
1630.00,0.1314
1629.00,0.1298
1628.00,0.1282
1627.00,0.1267
1626.00,0.1251
1625.00,0.1234
1624.00,0.1214
1623.00,0.1193
1622.00,0.1172
1621.00,0.1154
1620.00,0.1135
1619.00,0.1116
1618.00,0.1095
1617.00,0.1072
1616.00,0.1048
1615.00,0.1027
1614.00,0.1006
1613.00,0.0985
1612.00,0.0963
1611.00,0.0940
1610.00,0.0918
1609.00,0.0896
1608.00,0.0875
1607.00,0.0855
1606.00,0.0836
1605.00,0.0817
1604.00,0.0799
1603.00,0.0780
1602.00,0.0763
1601.00,0.0746
1600.00,0.0730
1599.00,0.0714
1598.00,0.0700
1597.00,0.0685
1596.00,0.0671
1595.00,0.0658
1594.00,0.0645
1593.00,0.0633
1592.00,0.0621
1591.00,0.0610
1590.00,0.0600
1589.00,0.0590
1588.00,0.0581
1587.00,0.0574
1586.00,0.0567
1585.00,0.0561
1584.00,0.0555
1583.00,0.0549
1582.00,0.0545
1581.00,0.0541
1580.00,0.0537
1579.00,0.0534
1578.00,0.0533
1577.00,0.0533
1576.00,0.0534
1575.00,0.0534
1574.00,0.0534
1573.00,0.0532
1572.00,0.0530
1571.00,0.0529
1570.00,0.0530
1569.00,0.0534
1568.00,0.0538
1567.00,0.0542
1566.00,0.0545
1565.00,0.0548
1564.00,0.0551
1563.00,0.0553
1562.00,0.0556
1561.00,0.0559
1560.00,0.0564
1559.00,0.0578
1558.00,0.0597
1557.00,0.0609
1556.00,0.0614
1555.00,0.0618
1554.00,0.0623
1553.00,0.0628
1552.00,0.0631
1551.00,0.0634
1550.00,0.0637
1549.00,0.0642
1548.00,0.0645
1547.00,0.0646
1546.00,0.0644
1545.00,0.0640
1544.00,0.0636
1543.00,0.0634
1542.00,0.0633
1541.00,0.0631
1540.00,0.0628
1539.00,0.0624
1538.00,0.0618
1537.00,0.0609
1536.00,0.0599
1535.00,0.0587
1534.00,0.0575
1533.00,0.0563
1532.00,0.0554
1531.00,0.0546
1530.00,0.0537
1529.00,0.0526
1528.00,0.0514
1527.00,0.0502
1526.00,0.0492
1525.00,0.0483
1524.00,0.0476
1523.00,0.0467
1522.00,0.0458
1521.00,0.0449
1520.00,0.0442
1519.00,0.0434
1518.00,0.0425
1517.00,0.0414
1516.00,0.0402
1515.00,0.0392
1514.00,0.0381
1513.00,0.0369
1512.00,0.0354
1511.00,0.0338
1510.00,0.0323
1509.00,0.0309
1508.00,0.0297
1507.00,0.0288
1506.00,0.0281
1505.00,0.0275
1504.00,0.0266
1503.00,0.0254
1502.00,0.0243
1501.00,0.0233
1500.00,0.0223
1499.00,0.0215
1498.00,0.0208
1497.00,0.0201
1496.00,0.0195
1495.00,0.0189
1494.00,0.0184
1493.00,0.0178
1492.00,0.0173
1491.00,0.0167
1490.00,0.0161
1489.00,0.0157
1488.00,0.0155
1487.00,0.0155
1486.00,0.0155
1485.00,0.0155
1484.00,0.0155
1483.00,0.0155
1482.00,0.0156
1481.00,0.0158
1480.00,0.0161
1479.00,0.0164
1478.00,0.0167
1477.00,0.0170
1476.00,0.0174
1475.00,0.0180
1474.00,0.0188
1473.00,0.0198
1472.00,0.0209
1471.00,0.0218
1470.00,0.0224
1469.00,0.0229
1468.00,0.0231
1467.00,0.0233
1466.00,0.0236
1465.00,0.0240
1464.00,0.0245
1463.00,0.0250
1462.00,0.0253
1461.00,0.0255
1460.00,0.0256
1459.00,0.0257
1458.00,0.0261
1457.00,0.0269
1456.00,0.0278
1455.00,0.0284
1454.00,0.0285
1453.00,0.0285
1452.00,0.0284
1451.00,0.0283
1450.00,0.0282
1449.00,0.0282
1448.00,0.0281
1447.00,0.0281
1446.00,0.0282
1445.00,0.0283
1444.00,0.0283
1443.00,0.0283
1442.00,0.0284
1441.00,0.0284
1440.00,0.0284
1439.00,0.0284
1438.00,0.0284
1437.00,0.0285
1436.00,0.0288
1435.00,0.0292
1434.00,0.0294
1433.00,0.0296
1432.00,0.0297
1431.00,0.0299
1430.00,0.0302
1429.00,0.0306
1428.00,0.0310
1427.00,0.0314
1426.00,0.0316
1425.00,0.0319
1424.00,0.0322
1423.00,0.0325
1422.00,0.0328
1421.00,0.0330
1420.00,0.0332
1419.00,0.0333
1418.00,0.0336
1417.00,0.0339
1416.00,0.0341
1415.00,0.0342
1414.00,0.0341
1413.00,0.0340
1412.00,0.0339
1411.00,0.0337
1410.00,0.0334
1409.00,0.0331
1408.00,0.0328
1407.00,0.0324
1406.00,0.0320
1405.00,0.0316
1404.00,0.0313
1403.00,0.0310
1402.00,0.0306
1401.00,0.0301
1400.00,0.0294
1399.00,0.0287
1398.00,0.0281
1397.00,0.0275
1396.00,0.0270
1395.00,0.0265
1394.00,0.0261
1393.00,0.0259
1392.00,0.0257
1391.00,0.0254
1390.00,0.0250
1389.00,0.0247
1388.00,0.0244
1387.00,0.0244
1386.00,0.0245
1385.00,0.0247
1384.00,0.0249
1383.00,0.0250
1382.00,0.0252
1381.00,0.0253
1380.00,0.0253
1379.00,0.0253
1378.00,0.0253
1377.00,0.0252
1376.00,0.0250
1375.00,0.0248
1374.00,0.0245
1373.00,0.0243
1372.00,0.0241
1371.00,0.0239
1370.00,0.0236
1369.00,0.0232
1368.00,0.0228
1367.00,0.0225
1366.00,0.0220
1365.00,0.0215
1364.00,0.0208
1363.00,0.0202
1362.00,0.0199
1361.00,0.0197
1360.00,0.0196
1359.00,0.0195
1358.00,0.0193
1357.00,0.0190
1356.00,0.0188
1355.00,0.0185
1354.00,0.0183
1353.00,0.0180
1352.00,0.0177
1351.00,0.0173
1350.00,0.0169
1349.00,0.0165
1348.00,0.0162
1347.00,0.0158
1346.00,0.0154
1345.00,0.0149
1344.00,0.0145
1343.00,0.0141
1342.00,0.0136
1341.00,0.0130
1340.00,0.0124
1339.00,0.0120
1338.00,0.0118
1337.00,0.0117
1336.00,0.0115
1335.00,0.0113
1334.00,0.0111
1333.00,0.0107
1332.00,0.0104
1331.00,0.0101
1330.00,0.0099
1329.00,0.0098
1328.00,0.0097
1327.00,0.0097
1326.00,0.0096
1325.00,0.0096
1324.00,0.0096
1323.00,0.0096
1322.00,0.0097
1321.00,0.0097
1320.00,0.0098
1319.00,0.0098
1318.00,0.0099
1317.00,0.0100
1316.00,0.0100
1315.00,0.0100
1314.00,0.0100
1313.00,0.0100
1312.00,0.0101
1311.00,0.0101
1310.00,0.0102
1309.00,0.0102
1308.00,0.0103
1307.00,0.0103
1306.00,0.0104
1305.00,0.0106
1304.00,0.0109
1303.00,0.0111
1302.00,0.0115
1301.00,0.0119
1300.00,0.0123
1299.00,0.0128
1298.00,0.0134
1297.00,0.0141
1296.00,0.0150
1295.00,0.0158
1294.00,0.0168
1293.00,0.0178
1292.00,0.0189
1291.00,0.0201
1290.00,0.0215
1289.00,0.0229
1288.00,0.0245
1287.00,0.0262
1286.00,0.0280
1285.00,0.0299
1284.00,0.0318
1283.00,0.0338
1282.00,0.0358
1281.00,0.0380
1280.00,0.0402
1279.00,0.0425
1278.00,0.0448
1277.00,0.0472
1276.00,0.0496
1275.00,0.0521
1274.00,0.0545
1273.00,0.0570
1272.00,0.0595
1271.00,0.0620
1270.00,0.0644
1269.00,0.0669
1268.00,0.0692
1267.00,0.0715
1266.00,0.0737
1265.00,0.0758
1264.00,0.0779
1263.00,0.0799
1262.00,0.0819
1261.00,0.0837
1260.00,0.0855
1259.00,0.0872
1258.00,0.0887
1257.00,0.0903
1256.00,0.0918
1255.00,0.0932
1254.00,0.0945
1253.00,0.0957
1252.00,0.0968
1251.00,0.0979
1250.00,0.0988
1249.00,0.0998
1248.00,0.1008
1247.00,0.1018
1246.00,0.1027
1245.00,0.1036
1244.00,0.1046
1243.00,0.1055
1242.00,0.1064
1241.00,0.1074
1240.00,0.1084
1239.00,0.1095
1238.00,0.1106
1237.00,0.1118
1236.00,0.1130
1235.00,0.1141
1234.00,0.1151
1233.00,0.1162
1232.00,0.1172
1231.00,0.1182
1230.00,0.1191
1229.00,0.1199
1228.00,0.1207
1227.00,0.1214
1226.00,0.1221
1225.00,0.1227
1224.00,0.1232
1223.00,0.1237
1222.00,0.1240
1221.00,0.1241
1220.00,0.1240
1219.00,0.1238
1218.00,0.1234
1217.00,0.1228
1216.00,0.1220
1215.00,0.1209
1214.00,0.1197
1213.00,0.1183
1212.00,0.1167
1211.00,0.1150
1210.00,0.1131
1209.00,0.1111
1208.00,0.1089
1207.00,0.1067
1206.00,0.1043
1205.00,0.1019
1204.00,0.0995
1203.00,0.0970
1202.00,0.0946
1201.00,0.0923
1200.00,0.0901
1199.00,0.0881
1198.00,0.0861
1197.00,0.0844
1196.00,0.0828
1195.00,0.0813
1194.00,0.0799
1193.00,0.0786
1192.00,0.0774
1191.00,0.0761
1190.00,0.0748
1189.00,0.0735
1188.00,0.0721
1187.00,0.0708
1186.00,0.0696
1185.00,0.0685
1184.00,0.0675
1183.00,0.0667
1182.00,0.0660
1181.00,0.0656
1180.00,0.0653
1179.00,0.0653
1178.00,0.0654
1177.00,0.0657
1176.00,0.0662
1175.00,0.0669
1174.00,0.0677
1173.00,0.0687
1172.00,0.0699
1171.00,0.0713
1170.00,0.0728
1169.00,0.0746
1168.00,0.0765
1167.00,0.0785
1166.00,0.0807
1165.00,0.0829
1164.00,0.0852
1163.00,0.0874
1162.00,0.0895
1161.00,0.0915
1160.00,0.0934
1159.00,0.0951
1158.00,0.0966
1157.00,0.0979
1156.00,0.0989
1155.00,0.0997
1154.00,0.1002
1153.00,0.1006
1152.00,0.1008
1151.00,0.1007
1150.00,0.1004
1149.00,0.0997
1148.00,0.0988
1147.00,0.0976
1146.00,0.0962
1145.00,0.0947
1144.00,0.0932
1143.00,0.0915
1142.00,0.0899
1141.00,0.0884
1140.00,0.0870
1139.00,0.0859
1138.00,0.0851
1137.00,0.0845
1136.00,0.0842
1135.00,0.0843
1134.00,0.0846
1133.00,0.0851
1132.00,0.0859
1131.00,0.0868
1130.00,0.0878
1129.00,0.0890
1128.00,0.0901
1127.00,0.0910
1126.00,0.0916
1125.00,0.0919
1124.00,0.0918
1123.00,0.0914
1122.00,0.0907
1121.00,0.0899
1120.00,0.0892
1119.00,0.0884
1118.00,0.0878
1117.00,0.0872
1116.00,0.0867
1115.00,0.0862
1114.00,0.0859
1113.00,0.0858
1112.00,0.0857
1111.00,0.0858
1110.00,0.0861
1109.00,0.0867
1108.00,0.0875
1107.00,0.0886
1106.00,0.0899
1105.00,0.0914
1104.00,0.0931
1103.00,0.0949
1102.00,0.0969
1101.00,0.0991
1100.00,0.1014
1099.00,0.1038
1098.00,0.1061
1097.00,0.1084
1096.00,0.1107
1095.00,0.1129
1094.00,0.1152
1093.00,0.1176
1092.00,0.1200
1091.00,0.1225
1090.00,0.1252
1089.00,0.1280
1088.00,0.1309
1087.00,0.1339
1086.00,0.1371
1085.00,0.1404
1084.00,0.1439
1083.00,0.1474
1082.00,0.1511
1081.00,0.1548
1080.00,0.1585
1079.00,0.1622
1078.00,0.1659
1077.00,0.1695
1076.00,0.1728
1075.00,0.1758
1074.00,0.1783
1073.00,0.1805
1072.00,0.1825
1071.00,0.1841
1070.00,0.1855
1069.00,0.1865
1068.00,0.1872
1067.00,0.1876
1066.00,0.1877
1065.00,0.1877
1064.00,0.1875
1063.00,0.1872
1062.00,0.1866
1061.00,0.1860
1060.00,0.1855
1059.00,0.1851
1058.00,0.1849
1057.00,0.1849
1056.00,0.1852
1055.00,0.1857
1054.00,0.1865
1053.00,0.1876
1052.00,0.1888
1051.00,0.1901
1050.00,0.1915
1049.00,0.1932
1048.00,0.1952
1047.00,0.1973
1046.00,0.1996
1045.00,0.2020
1044.00,0.2043
1043.00,0.2066
1042.00,0.2086
1041.00,0.2105
1040.00,0.2120
1039.00,0.2132
1038.00,0.2141
1037.00,0.2149
1036.00,0.2155
1035.00,0.2159
1034.00,0.2163
1033.00,0.2167
1032.00,0.2173
1031.00,0.2179
1030.00,0.2185
1029.00,0.2189
1028.00,0.2192
1027.00,0.2189
1026.00,0.2182
1025.00,0.2171
1024.00,0.2157
1023.00,0.2137
1022.00,0.2114
1021.00,0.2087
1020.00,0.2058
1019.00,0.2027
1018.00,0.1994
1017.00,0.1960
1016.00,0.1925
1015.00,0.1890
1014.00,0.1856
1013.00,0.1823
1012.00,0.1792
1011.00,0.1763
1010.00,0.1735
1009.00,0.1709
1008.00,0.1684
1007.00,0.1660
1006.00,0.1634
1005.00,0.1608
1004.00,0.1579
1003.00,0.1548
1002.00,0.1514
1001.00,0.1476
1000.00,0.1434
999.00,0.1389
998.00,0.1345
997.00,0.1301
996.00,0.1261
995.00,0.1222
994.00,0.1185
993.00,0.1149
992.00,0.1114
991.00,0.1080
990.00,0.1048
989.00,0.1016
988.00,0.0985
987.00,0.0954
986.00,0.0923
985.00,0.0893
984.00,0.0865
983.00,0.0838
982.00,0.0813
981.00,0.0792
980.00,0.0773
979.00,0.0757
978.00,0.0743
977.00,0.0730
976.00,0.0717
975.00,0.0703
974.00,0.0689
973.00,0.0675
972.00,0.0660
971.00,0.0643
970.00,0.0625
969.00,0.0605
968.00,0.0580
967.00,0.0552
966.00,0.0521
965.00,0.0488
964.00,0.0455
963.00,0.0421
962.00,0.0388
961.00,0.0357
960.00,0.0329
959.00,0.0304
958.00,0.0282
957.00,0.0263
956.00,0.0246
955.00,0.0232
954.00,0.0220
953.00,0.0210
952.00,0.0204
951.00,0.0200
950.00,0.0198
949.00,0.0199
948.00,0.0201
947.00,0.0206
946.00,0.0213
945.00,0.0224
944.00,0.0238
943.00,0.0256
942.00,0.0278
941.00,0.0304
940.00,0.0331
939.00,0.0361
938.00,0.0393
937.00,0.0424
936.00,0.0455
935.00,0.0483
934.00,0.0509
933.00,0.0530
932.00,0.0545
931.00,0.0556
930.00,0.0561
929.00,0.0561
928.00,0.0556
927.00,0.0548
926.00,0.0536
925.00,0.0523
924.00,0.0509
923.00,0.0494
922.00,0.0478
921.00,0.0462
920.00,0.0445
919.00,0.0428
918.00,0.0412
917.00,0.0396
916.00,0.0380
915.00,0.0364
914.00,0.0348
913.00,0.0333
912.00,0.0319
911.00,0.0305
910.00,0.0293
909.00,0.0281
908.00,0.0271
907.00,0.0262
906.00,0.0255
905.00,0.0248
904.00,0.0242
903.00,0.0237
902.00,0.0232
901.00,0.0227
900.00,0.0223
899.00,0.0219
898.00,0.0216
897.00,0.0214
896.00,0.0213
895.00,0.0212
894.00,0.0212
893.00,0.0212
892.00,0.0211
891.00,0.0210
890.00,0.0208
889.00,0.0206
888.00,0.0201
887.00,0.0195
886.00,0.0188
885.00,0.0177
884.00,0.0164
883.00,0.0150
882.00,0.0134
881.00,0.0120
880.00,0.0108
879.00,0.0098
878.00,0.0092
877.00,0.0088
876.00,0.0088
875.00,0.0090
874.00,0.0093
873.00,0.0096
872.00,0.0097
871.00,0.0097
870.00,0.0096
869.00,0.0095
868.00,0.0094
867.00,0.0093
866.00,0.0094
865.00,0.0096
864.00,0.0100
863.00,0.0105
862.00,0.0114
861.00,0.0124
860.00,0.0135
859.00,0.0149
858.00,0.0164
857.00,0.0181
856.00,0.0200
855.00,0.0220
854.00,0.0241
853.00,0.0262
852.00,0.0283
851.00,0.0303
850.00,0.0322
849.00,0.0339
848.00,0.0353
847.00,0.0364
846.00,0.0371
845.00,0.0374
844.00,0.0372
843.00,0.0367
842.00,0.0358
841.00,0.0347
840.00,0.0336
839.00,0.0326
838.00,0.0316
837.00,0.0307
836.00,0.0297
835.00,0.0287
834.00,0.0277
833.00,0.0267
832.00,0.0257
831.00,0.0247
830.00,0.0237
829.00,0.0228
828.00,0.0218
827.00,0.0208
826.00,0.0198
825.00,0.0189
824.00,0.0181
823.00,0.0174
822.00,0.0167
821.00,0.0161
820.00,0.0154
819.00,0.0149
818.00,0.0145
817.00,0.0142
816.00,0.0140
815.00,0.0139
814.00,0.0139
813.00,0.0139
812.00,0.0138
811.00,0.0138
810.00,0.0139
809.00,0.0141
808.00,0.0142
807.00,0.0142
806.00,0.0141
805.00,0.0140
804.00,0.0138
803.00,0.0135
802.00,0.0132
801.00,0.0129
800.00,0.0126
799.00,0.0122
798.00,0.0119
797.00,0.0116
796.00,0.0113
795.00,0.0109
794.00,0.0104
793.00,0.0101
792.00,0.0099
791.00,0.0097
790.00,0.0096
789.00,0.0095
788.00,0.0094
787.00,0.0094
786.00,0.0095
785.00,0.0096
784.00,0.0098
783.00,0.0100
782.00,0.0102
781.00,0.0106
780.00,0.0110
779.00,0.0115
778.00,0.0121
777.00,0.0127
776.00,0.0132
775.00,0.0137
774.00,0.0141
773.00,0.0144
772.00,0.0145
771.00,0.0143
770.00,0.0141
769.00,0.0136
768.00,0.0131
767.00,0.0124
766.00,0.0118
765.00,0.0111
764.00,0.0104
763.00,0.0099
762.00,0.0095
761.00,0.0093
760.00,0.0091
759.00,0.0091
758.00,0.0092
757.00,0.0093
756.00,0.0095
755.00,0.0098
754.00,0.0102
753.00,0.0107
752.00,0.0113
751.00,0.0122
750.00,0.0132
749.00,0.0144
748.00,0.0156
747.00,0.0167
746.00,0.0179
745.00,0.0189
744.00,0.0196
743.00,0.0202
742.00,0.0208
741.00,0.0214
740.00,0.0218
739.00,0.0222
738.00,0.0224
737.00,0.0225
736.00,0.0226
735.00,0.0227
734.00,0.0228
733.00,0.0229
732.00,0.0230
731.00,0.0231
730.00,0.0233
729.00,0.0234
728.00,0.0236
727.00,0.0239
726.00,0.0241
725.00,0.0242
724.00,0.0242
723.00,0.0241
722.00,0.0239
721.00,0.0237
720.00,0.0234
719.00,0.0230
718.00,0.0227
717.00,0.0225
716.00,0.0225
715.00,0.0226
714.00,0.0228
713.00,0.0232
712.00,0.0237
711.00,0.0243
710.00,0.0251
709.00,0.0261
708.00,0.0270
707.00,0.0279
706.00,0.0288
705.00,0.0296
704.00,0.0304
703.00,0.0310
702.00,0.0315
701.00,0.0319
700.00,0.0319
699.00,0.0318
698.00,0.0314
697.00,0.0308
696.00,0.0301
695.00,0.0293
694.00,0.0283
693.00,0.0271
692.00,0.0256
691.00,0.0240
690.00,0.0225
689.00,0.0212
688.00,0.0201
687.00,0.0190
686.00,0.0181
685.00,0.0173
684.00,0.0166
683.00,0.0159
682.00,0.0154
681.00,0.0150
680.00,0.0146
679.00,0.0144
678.00,0.0141
677.00,0.0140
676.00,0.0139
675.00,0.0139
674.00,0.0140
673.00,0.0142
672.00,0.0142
671.00,0.0138
670.00,0.0131
669.00,0.0126
668.00,0.0129
667.00,0.0139
666.00,0.0147
665.00,0.0150
664.00,0.0150
663.00,0.0151
662.00,0.0154
661.00,0.0158
660.00,0.0160
659.00,0.0162
658.00,0.0161
657.00,0.0157
656.00,0.0151
655.00,0.0144
654.00,0.0139
653.00,0.0136
652.00,0.0132
651.00,0.0129
650.00,0.0126
649.00,0.0121
648.00,0.0115
647.00,0.0109
646.00,0.0106
645.00,0.0105
644.00,0.0105
643.00,0.0103
642.00,0.0100
641.00,0.0097
640.00,0.0094
639.00,0.0091
638.00,0.0090
637.00,0.0091
636.00,0.0093
635.00,0.0097
634.00,0.0105
633.00,0.0114
632.00,0.0124
631.00,0.0134
630.00,0.0146
629.00,0.0160
628.00,0.0174
627.00,0.0189
626.00,0.0203
625.00,0.0217
624.00,0.0232
623.00,0.0247
622.00,0.0263
621.00,0.0278
620.00,0.0293
619.00,0.0307
618.00,0.0320
617.00,0.0332
616.00,0.0342
615.00,0.0350
614.00,0.0355
613.00,0.0359
612.00,0.0364
611.00,0.0370
610.00,0.0374
609.00,0.0377
608.00,0.0378
607.00,0.0378
606.00,0.0380
605.00,0.0382
604.00,0.0383
603.00,0.0383
602.00,0.0382
601.00,0.0382
600.00,0.0381
599.00,0.0380
598.00,0.0378
597.00,0.0376
596.00,0.0375
595.00,0.0375
594.00,0.0376
593.00,0.0379
592.00,0.0383
591.00,0.0387
590.00,0.0391
589.00,0.0397
588.00,0.0405
587.00,0.0414
586.00,0.0425
585.00,0.0439
584.00,0.0454
583.00,0.0470
582.00,0.0483
581.00,0.0494
580.00,0.0501
579.00,0.0505
578.00,0.0507
577.00,0.0509
576.00,0.0508
575.00,0.0503
574.00,0.0495
573.00,0.0484
572.00,0.0474
571.00,0.0465
570.00,0.0456
569.00,0.0445
568.00,0.0433
567.00,0.0420
566.00,0.0408
565.00,0.0399
564.00,0.0390
563.00,0.0381
562.00,0.0372
561.00,0.0366
560.00,0.0360
559.00,0.0355
558.00,0.0350
557.00,0.0345
556.00,0.0339
555.00,0.0332
554.00,0.0325
553.00,0.0318
552.00,0.0313
551.00,0.0311
550.00,0.0310
549.00,0.0310
548.00,0.0311
547.00,0.0312
546.00,0.0314
545.00,0.0315
544.00,0.0317
543.00,0.0318
542.00,0.0319
541.00,0.0319
540.00,0.0319
539.00,0.0316
538.00,0.0311
537.00,0.0304
536.00,0.0298
535.00,0.0295
534.00,0.0292
533.00,0.0288
532.00,0.0281
531.00,0.0274
530.00,0.0267
529.00,0.0261
528.00,0.0256
527.00,0.0252
526.00,0.0253
525.00,0.0257
524.00,0.0262
523.00,0.0263
522.00,0.0257
521.00,0.0246
520.00,0.0235
519.00,0.0227
518.00,0.0223
517.00,0.0220
516.00,0.0216
515.00,0.0211
514.00,0.0204
513.00,0.0195
512.00,0.0184
511.00,0.0172
510.00,0.0161
509.00,0.0153
508.00,0.0146
507.00,0.0141
506.00,0.0135
505.00,0.0128
504.00,0.0119
503.00,0.0110
502.00,0.0103
501.00,0.0097
500.00,0.0091
499.00,0.0088
498.00,0.0091
497.00,0.0098
496.00,0.0103
495.00,0.0103
494.00,0.0098
493.00,0.0091
492.00,0.0088
491.00,0.0092
490.00,0.0101
489.00,0.0110
488.00,0.0115
487.00,0.0118
486.00,0.0122
485.00,0.0132
484.00,0.0145
483.00,0.0159
482.00,0.0170
481.00,0.0175
480.00,0.0175
479.00,0.0170
478.00,0.0164
477.00,0.0163
476.00,0.0166
475.00,0.0171
474.00,0.0174
473.00,0.0175
472.00,0.0178
471.00,0.0181
470.00,0.0180
469.00,0.0173
468.00,0.0167
467.00,0.0166
466.00,0.0172
465.00,0.0181
464.00,0.0188
463.00,0.0190
462.00,0.0186
461.00,0.0176
460.00,0.0166
459.00,0.0162
458.00,0.0164
457.00,0.0168
456.00,0.0163
455.00,0.0148
454.00,0.0129
453.00,0.0115
452.00,0.0108
451.00,0.0104
450.00,0.0097
