Created as New Dataset,Sample 003 By Administrator Date Monday, June 09 2025
cm-1,A
4000.00,0.0054
3999.00,0.0054
3998.00,0.0054
3997.00,0.0054
3996.00,0.0054
3995.00,0.0054
3994.00,0.0054
3993.00,0.0053
3992.00,0.0053
3991.00,0.0054
3990.00,0.0054
3989.00,0.0054
3988.00,0.0054
3987.00,0.0054
3986.00,0.0054
3985.00,0.0054
3984.00,0.0054
3983.00,0.0054
3982.00,0.0054
3981.00,0.0054
3980.00,0.0054
3979.00,0.0054
3978.00,0.0054
3977.00,0.0054
3976.00,0.0054
3975.00,0.0054
3974.00,0.0054
3973.00,0.0055
3972.00,0.0055
3971.00,0.0055
3970.00,0.0056
3969.00,0.0055
3968.00,0.0055
3967.00,0.0055
3966.00,0.0054
3965.00,0.0054
3964.00,0.0054
3963.00,0.0054
3962.00,0.0054
3961.00,0.0054
3960.00,0.0055
3959.00,0.0055
3958.00,0.0055
3957.00,0.0055
3956.00,0.0055
3955.00,0.0055
3954.00,0.0055
3953.00,0.0055
3952.00,0.0055
3951.00,0.0055
3950.00,0.0055
3949.00,0.0055
3948.00,0.0055
3947.00,0.0055
3946.00,0.0055
3945.00,0.0055
3944.00,0.0055
3943.00,0.0055
3942.00,0.0055
3941.00,0.0055
3940.00,0.0055
3939.00,0.0055
3938.00,0.0055
3937.00,0.0055
3936.00,0.0055
3935.00,0.0056
3934.00,0.0056
3933.00,0.0056
3932.00,0.0056
3931.00,0.0056
3930.00,0.0056
3929.00,0.0055
3928.00,0.0055
3927.00,0.0055
3926.00,0.0056
3925.00,0.0056
3924.00,0.0056
3923.00,0.0056
3922.00,0.0056
3921.00,0.0056
3920.00,0.0056
3919.00,0.0056
3918.00,0.0056
3917.00,0.0056
3916.00,0.0055
3915.00,0.0055
3914.00,0.0054
3913.00,0.0054
3912.00,0.0054
3911.00,0.0054
3910.00,0.0054
3909.00,0.0054
3908.00,0.0055
3907.00,0.0056
3906.00,0.0057
3905.00,0.0058
3904.00,0.0058
3903.00,0.0059
3902.00,0.0058
3901.00,0.0058
3900.00,0.0057
3899.00,0.0056
3898.00,0.0056
3897.00,0.0055
3896.00,0.0055
3895.00,0.0056
3894.00,0.0056
3893.00,0.0056
3892.00,0.0056
3891.00,0.0055
3890.00,0.0055
3889.00,0.0055
3888.00,0.0056
3887.00,0.0056
3886.00,0.0057
3885.00,0.0057
3884.00,0.0057
3883.00,0.0057
3882.00,0.0057
3881.00,0.0056
3880.00,0.0056
3879.00,0.0055
3878.00,0.0055
3877.00,0.0056
3876.00,0.0056
3875.00,0.0056
3874.00,0.0055
3873.00,0.0055
3872.00,0.0056
3871.00,0.0056
3870.00,0.0057
3869.00,0.0057
3868.00,0.0056
3867.00,0.0056
3866.00,0.0056
3865.00,0.0056
3864.00,0.0056
3863.00,0.0056
3862.00,0.0056
3861.00,0.0055
3860.00,0.0055
3859.00,0.0055
3858.00,0.0054
3857.00,0.0054
3856.00,0.0054
3855.00,0.0055
3854.00,0.0056
3853.00,0.0057
3852.00,0.0057
3851.00,0.0057
3850.00,0.0057
3849.00,0.0056
3848.00,0.0056
3847.00,0.0056
3846.00,0.0056
3845.00,0.0056
3844.00,0.0056
3843.00,0.0056
3842.00,0.0057
3841.00,0.0057
3840.00,0.0058
3839.00,0.0058
3838.00,0.0058
3837.00,0.0058
3836.00,0.0057
3835.00,0.0057
3834.00,0.0057
3833.00,0.0056
3832.00,0.0056
3831.00,0.0056
3830.00,0.0055
3829.00,0.0055
3828.00,0.0055
3827.00,0.0055
3826.00,0.0055
3825.00,0.0055
3824.00,0.0056
3823.00,0.0057
3822.00,0.0057
3821.00,0.0057
3820.00,0.0057
3819.00,0.0057
3818.00,0.0057
3817.00,0.0057
3816.00,0.0056
3815.00,0.0056
3814.00,0.0055
3813.00,0.0055
3812.00,0.0055
3811.00,0.0055
3810.00,0.0055
3809.00,0.0055
3808.00,0.0055
3807.00,0.0055
3806.00,0.0055
3805.00,0.0056
3804.00,0.0057
3803.00,0.0057
3802.00,0.0057
3801.00,0.0057
3800.00,0.0057
3799.00,0.0057
3798.00,0.0058
3797.00,0.0057
3796.00,0.0057
3795.00,0.0056
3794.00,0.0056
3793.00,0.0056
3792.00,0.0056
3791.00,0.0056
3790.00,0.0056
3789.00,0.0056
3788.00,0.0056
3787.00,0.0056
3786.00,0.0056
3785.00,0.0056
3784.00,0.0056
3783.00,0.0056
3782.00,0.0056
3781.00,0.0056
3780.00,0.0057
3779.00,0.0057
3778.00,0.0057
3777.00,0.0057
3776.00,0.0056
3775.00,0.0056
3774.00,0.0056
3773.00,0.0056
3772.00,0.0057
3771.00,0.0057
3770.00,0.0057
3769.00,0.0058
3768.00,0.0058
3767.00,0.0058
3766.00,0.0058
3765.00,0.0059
3764.00,0.0059
3763.00,0.0059
3762.00,0.0060
3761.00,0.0060
3760.00,0.0060
3759.00,0.0060
3758.00,0.0060
3757.00,0.0060
3756.00,0.0061
3755.00,0.0061
3754.00,0.0061
3753.00,0.0061
3752.00,0.0061
3751.00,0.0061
3750.00,0.0062
3749.00,0.0062
3748.00,0.0063
3747.00,0.0063
3746.00,0.0064
3745.00,0.0064
3744.00,0.0064
3743.00,0.0064
3742.00,0.0065
3741.00,0.0065
3740.00,0.0065
3739.00,0.0065
3738.00,0.0065
3737.00,0.0065
3736.00,0.0065
3735.00,0.0065
3734.00,0.0065
3733.00,0.0065
3732.00,0.0064
3731.00,0.0064
3730.00,0.0064
3729.00,0.0064
3728.00,0.0064
3727.00,0.0064
3726.00,0.0064
3725.00,0.0064
3724.00,0.0065
3723.00,0.0065
3722.00,0.0066
3721.00,0.0066
3720.00,0.0066
3719.00,0.0066
3718.00,0.0066
3717.00,0.0067
3716.00,0.0067
3715.00,0.0067
3714.00,0.0068
3713.00,0.0069
3712.00,0.0069
3711.00,0.0070
3710.00,0.0071
3709.00,0.0071
3708.00,0.0071
3707.00,0.0071
3706.00,0.0071
3705.00,0.0072
3704.00,0.0073
3703.00,0.0073
3702.00,0.0074
3701.00,0.0074
3700.00,0.0074
3699.00,0.0075
3698.00,0.0075
3697.00,0.0076
3696.00,0.0077
3695.00,0.0078
3694.00,0.0079
3693.00,0.0080
3692.00,0.0082
3691.00,0.0083
3690.00,0.0084
3689.00,0.0086
3688.00,0.0088
3687.00,0.0089
3686.00,0.0090
3685.00,0.0091
3684.00,0.0092
3683.00,0.0094
3682.00,0.0095
3681.00,0.0097
3680.00,0.0099
3679.00,0.0101
3678.00,0.0103
3677.00,0.0106
3676.00,0.0108
3675.00,0.0110
3674.00,0.0112
3673.00,0.0114
3672.00,0.0117
3671.00,0.0120
3670.00,0.0123
3669.00,0.0125
3668.00,0.0127
3667.00,0.0130
3666.00,0.0132
3665.00,0.0134
3664.00,0.0136
3663.00,0.0138
3662.00,0.0140
3661.00,0.0144
3660.00,0.0147
3659.00,0.0151
3658.00,0.0155
3657.00,0.0160
3656.00,0.0164
3655.00,0.0169
3654.00,0.0173
3653.00,0.0177
3652.00,0.0181
3651.00,0.0185
3650.00,0.0190
3649.00,0.0196
3648.00,0.0203
3647.00,0.0208
3646.00,0.0213
3645.00,0.0217
3644.00,0.0220
3643.00,0.0224
3642.00,0.0228
3641.00,0.0232
3640.00,0.0236
3639.00,0.0241
3638.00,0.0247
3637.00,0.0252
3636.00,0.0258
3635.00,0.0263
3634.00,0.0269
3633.00,0.0274
3632.00,0.0280
3631.00,0.0285
3630.00,0.0291
3629.00,0.0298
3628.00,0.0305
3627.00,0.0312
3626.00,0.0318
3625.00,0.0324
3624.00,0.0329
3623.00,0.0335
3622.00,0.0340
3621.00,0.0346
3620.00,0.0352
3619.00,0.0359
3618.00,0.0366
3617.00,0.0373
3616.00,0.0380
3615.00,0.0386
3614.00,0.0392
3613.00,0.0398
3612.00,0.0404
3611.00,0.0410
3610.00,0.0416
3609.00,0.0422
3608.00,0.0427
3607.00,0.0433
3606.00,0.0439
3605.00,0.0445
3604.00,0.0452
3603.00,0.0458
3602.00,0.0463
3601.00,0.0469
3600.00,0.0475
3599.00,0.0481
3598.00,0.0488
3597.00,0.0495
3596.00,0.0501
3595.00,0.0507
3594.00,0.0514
3593.00,0.0520
3592.00,0.0526
3591.00,0.0533
3590.00,0.0539
3589.00,0.0545
3588.00,0.0551
3587.00,0.0557
3586.00,0.0563
3585.00,0.0570
3584.00,0.0576
3583.00,0.0582
3582.00,0.0588
3581.00,0.0593
3580.00,0.0598
3579.00,0.0604
3578.00,0.0610
3577.00,0.0616
3576.00,0.0622
3575.00,0.0628
3574.00,0.0634
3573.00,0.0641
3572.00,0.0647
3571.00,0.0654
3570.00,0.0660
3569.00,0.0666
3568.00,0.0672
3567.00,0.0678
3566.00,0.0684
3565.00,0.0692
3564.00,0.0699
3563.00,0.0705
3562.00,0.0711
3561.00,0.0716
3560.00,0.0721
3559.00,0.0727
3558.00,0.0732
3557.00,0.0738
3556.00,0.0744
3555.00,0.0749
3554.00,0.0755
3553.00,0.0761
3552.00,0.0767
3551.00,0.0774
3550.00,0.0782
3549.00,0.0789
3548.00,0.0795
3547.00,0.0801
3546.00,0.0807
3545.00,0.0813
3544.00,0.0818
3543.00,0.0824
3542.00,0.0829
3541.00,0.0835
3540.00,0.0840
3539.00,0.0846
3538.00,0.0851
3537.00,0.0857
3536.00,0.0862
3535.00,0.0868
3534.00,0.0874
3533.00,0.0880
3532.00,0.0886
3531.00,0.0891
3530.00,0.0896
3529.00,0.0902
3528.00,0.0908
3527.00,0.0914
3526.00,0.0920
3525.00,0.0926
3524.00,0.0932
3523.00,0.0937
3522.00,0.0942
3521.00,0.0947
3520.00,0.0953
3519.00,0.0958
3518.00,0.0964
3517.00,0.0970
3516.00,0.0975
3515.00,0.0981
3514.00,0.0986
3513.00,0.0991
3512.00,0.0996
3511.00,0.1001
3510.00,0.1006
3509.00,0.1012
3508.00,0.1018
3507.00,0.1024
3506.00,0.1030
3505.00,0.1036
3504.00,0.1042
3503.00,0.1047
3502.00,0.1052
3501.00,0.1058
3500.00,0.1064
3499.00,0.1070
3498.00,0.1076
3497.00,0.1081
3496.00,0.1085
3495.00,0.1090
3494.00,0.1094
3493.00,0.1099
3492.00,0.1105
3491.00,0.1110
3490.00,0.1116
3489.00,0.1122
3488.00,0.1128
3487.00,0.1133
3486.00,0.1138
3485.00,0.1143
3484.00,0.1148
3483.00,0.1153
3482.00,0.1159
3481.00,0.1165
3480.00,0.1171
3479.00,0.1176
3478.00,0.1181
3477.00,0.1186
3476.00,0.1191
3475.00,0.1196
3474.00,0.1201
3473.00,0.1207
3472.00,0.1213
3471.00,0.1219
3470.00,0.1225
3469.00,0.1230
3468.00,0.1235
3467.00,0.1240
3466.00,0.1244
3465.00,0.1248
3464.00,0.1253
3463.00,0.1258
3462.00,0.1263
3461.00,0.1268
3460.00,0.1273
3459.00,0.1277
3458.00,0.1282
3457.00,0.1287
3456.00,0.1291
3455.00,0.1296
3454.00,0.1301
3453.00,0.1306
3452.00,0.1311
3451.00,0.1316
3450.00,0.1321
3449.00,0.1326
3448.00,0.1331
3447.00,0.1335
3446.00,0.1340
3445.00,0.1345
3444.00,0.1350
3443.00,0.1354
3442.00,0.1359
3441.00,0.1363
3440.00,0.1368
3439.00,0.1374
3438.00,0.1379
3437.00,0.1384
3436.00,0.1389
3435.00,0.1393
3434.00,0.1397
3433.00,0.1401
3432.00,0.1405
3431.00,0.1409
3430.00,0.1413
3429.00,0.1417
3428.00,0.1421
3427.00,0.1426
3426.00,0.1430
3425.00,0.1434
3424.00,0.1439
3423.00,0.1443
3422.00,0.1447
3421.00,0.1451
3420.00,0.1455
3419.00,0.1459
3418.00,0.1463
3417.00,0.1466
3416.00,0.1470
3415.00,0.1474
3414.00,0.1478
3413.00,0.1482
3412.00,0.1486
3411.00,0.1490
3410.00,0.1493
3409.00,0.1496
3408.00,0.1499
3407.00,0.1502
3406.00,0.1505
3405.00,0.1509
3404.00,0.1514
3403.00,0.1518
3402.00,0.1522
3401.00,0.1525
3400.00,0.1527
3399.00,0.1529
3398.00,0.1530
3397.00,0.1533
3396.00,0.1536
3395.00,0.1539
3394.00,0.1542
3393.00,0.1545
3392.00,0.1548
3391.00,0.1549
3390.00,0.1551
3389.00,0.1553
3388.00,0.1554
3387.00,0.1555
3386.00,0.1556
3385.00,0.1558
3384.00,0.1559
3383.00,0.1561
3382.00,0.1563
3381.00,0.1565
3380.00,0.1567
3379.00,0.1569
3378.00,0.1570
3377.00,0.1571
3376.00,0.1573
3375.00,0.1574
3374.00,0.1576
3373.00,0.1578
3372.00,0.1580
3371.00,0.1581
3370.00,0.1582
3369.00,0.1583
3368.00,0.1583
3367.00,0.1584
3366.00,0.1585
3365.00,0.1585
3364.00,0.1586
3363.00,0.1587
3362.00,0.1587
3361.00,0.1587
3360.00,0.1587
3359.00,0.1587
3358.00,0.1588
3357.00,0.1588
3356.00,0.1589
3355.00,0.1589
3354.00,0.1589
3353.00,0.1590
3352.00,0.1590
3351.00,0.1590
3350.00,0.1591
3349.00,0.1590
3348.00,0.1590
3347.00,0.1589
3346.00,0.1589
3345.00,0.1589
3344.00,0.1588
3343.00,0.1588
3342.00,0.1588
3341.00,0.1588
3340.00,0.1587
3339.00,0.1587
3338.00,0.1587
3337.00,0.1586
3336.00,0.1585
3335.00,0.1584
3334.00,0.1584
3333.00,0.1583
3332.00,0.1583
3331.00,0.1582
3330.00,0.1582
3329.00,0.1581
3328.00,0.1580
3327.00,0.1579
3326.00,0.1578
3325.00,0.1577
3324.00,0.1576
3323.00,0.1575
3322.00,0.1575
3321.00,0.1575
3320.00,0.1574
3319.00,0.1574
3318.00,0.1573
3317.00,0.1572
3316.00,0.1571
3315.00,0.1570
3314.00,0.1570
3313.00,0.1569
3312.00,0.1568
3311.00,0.1567
3310.00,0.1567
3309.00,0.1566
3308.00,0.1566
3307.00,0.1565
3306.00,0.1564
3305.00,0.1563
3304.00,0.1562
3303.00,0.1560
3302.00,0.1559
3301.00,0.1558
3300.00,0.1557
3299.00,0.1556
3298.00,0.1555
3297.00,0.1555
3296.00,0.1553
3295.00,0.1552
3294.00,0.1551
3293.00,0.1550
3292.00,0.1549
3291.00,0.1548
3290.00,0.1547
3289.00,0.1546
3288.00,0.1545
3287.00,0.1543
3286.00,0.1541
3285.00,0.1539
3284.00,0.1538
3283.00,0.1537
3282.00,0.1535
3281.00,0.1534
3280.00,0.1532
3279.00,0.1529
3278.00,0.1526
3277.00,0.1523
3276.00,0.1521
3275.00,0.1519
3274.00,0.1516
3273.00,0.1514
3272.00,0.1512
3271.00,0.1509
3270.00,0.1507
3269.00,0.1504
3268.00,0.1501
3267.00,0.1499
3266.00,0.1496
3265.00,0.1493
3264.00,0.1490
3263.00,0.1486
3262.00,0.1483
3261.00,0.1480
3260.00,0.1477
3259.00,0.1473
3258.00,0.1470
3257.00,0.1466
3256.00,0.1462
3255.00,0.1458
3254.00,0.1455
3253.00,0.1452
3252.00,0.1448
3251.00,0.1445
3250.00,0.1441
3249.00,0.1437
3248.00,0.1433
3247.00,0.1428
3246.00,0.1424
3245.00,0.1420
3244.00,0.1416
3243.00,0.1412
3242.00,0.1409
3241.00,0.1406
3240.00,0.1402
3239.00,0.1398
3238.00,0.1394
3237.00,0.1390
3236.00,0.1386
3235.00,0.1382
3234.00,0.1378
3233.00,0.1374
3232.00,0.1370
3231.00,0.1366
3230.00,0.1361
3229.00,0.1357
3228.00,0.1353
3227.00,0.1348
3226.00,0.1344
3225.00,0.1340
3224.00,0.1335
3223.00,0.1330
3222.00,0.1326
3221.00,0.1321
3220.00,0.1316
3219.00,0.1312
3218.00,0.1307
3217.00,0.1303
3216.00,0.1298
3215.00,0.1294
3214.00,0.1290
3213.00,0.1285
3212.00,0.1280
3211.00,0.1275
3210.00,0.1270
3209.00,0.1265
3208.00,0.1260
3207.00,0.1255
3206.00,0.1250
3205.00,0.1245
3204.00,0.1240
3203.00,0.1235
3202.00,0.1229
3201.00,0.1224
3200.00,0.1219
3199.00,0.1214
3198.00,0.1209
3197.00,0.1204
3196.00,0.1199
3195.00,0.1193
3194.00,0.1187
3193.00,0.1181
3192.00,0.1176
3191.00,0.1170
3190.00,0.1165
3189.00,0.1159
3188.00,0.1154
3187.00,0.1148
3186.00,0.1143
3185.00,0.1137
3184.00,0.1132
3183.00,0.1126
3182.00,0.1121
3181.00,0.1116
3180.00,0.1111
3179.00,0.1105
3178.00,0.1099
3177.00,0.1093
3176.00,0.1086
3175.00,0.1080
3174.00,0.1074
3173.00,0.1068
3172.00,0.1062
3171.00,0.1056
3170.00,0.1051
3169.00,0.1045
3168.00,0.1040
3167.00,0.1034
3166.00,0.1028
3165.00,0.1022
3164.00,0.1016
3163.00,0.1010
3162.00,0.1004
3161.00,0.0998
3160.00,0.0992
3159.00,0.0987
3158.00,0.0981
3157.00,0.0975
3156.00,0.0970
3155.00,0.0964
3154.00,0.0958
3153.00,0.0953
3152.00,0.0947
3151.00,0.0941
3150.00,0.0936
3149.00,0.0931
3148.00,0.0925
3147.00,0.0920
3146.00,0.0914
3145.00,0.0909
3144.00,0.0903
3143.00,0.0898
3142.00,0.0893
3141.00,0.0889
3140.00,0.0883
3139.00,0.0878
3138.00,0.0872
3137.00,0.0867
3136.00,0.0862
3135.00,0.0857
3134.00,0.0852
3133.00,0.0846
3132.00,0.0841
3131.00,0.0836
3130.00,0.0831
3129.00,0.0826
3128.00,0.0821
3127.00,0.0817
3126.00,0.0813
3125.00,0.0808
3124.00,0.0804
3123.00,0.0799
3122.00,0.0795
3121.00,0.0790
3120.00,0.0786
3119.00,0.0782
3118.00,0.0777
3117.00,0.0773
3116.00,0.0768
3115.00,0.0764
3114.00,0.0760
3113.00,0.0756
3112.00,0.0752
3111.00,0.0747
3110.00,0.0744
3109.00,0.0740
3108.00,0.0737
3107.00,0.0734
3106.00,0.0730
3105.00,0.0726
3104.00,0.0723
3103.00,0.0719
3102.00,0.0715
3101.00,0.0711
3100.00,0.0708
3099.00,0.0704
3098.00,0.0701
3097.00,0.0698
3096.00,0.0695
3095.00,0.0692
3094.00,0.0689
3093.00,0.0686
3092.00,0.0683
3091.00,0.0680
3090.00,0.0677
3089.00,0.0674
3088.00,0.0671
3087.00,0.0668
3086.00,0.0664
3085.00,0.0661
3084.00,0.0658
3083.00,0.0655
3082.00,0.0652
3081.00,0.0649
3080.00,0.0646
3079.00,0.0643
3078.00,0.0640
3077.00,0.0638
3076.00,0.0635
3075.00,0.0632
3074.00,0.0629
3073.00,0.0626
3072.00,0.0623
3071.00,0.0620
3070.00,0.0617
3069.00,0.0614
3068.00,0.0611
3067.00,0.0608
3066.00,0.0605
3065.00,0.0602
3064.00,0.0599
3063.00,0.0595
3062.00,0.0592
3061.00,0.0589
3060.00,0.0586
3059.00,0.0583
3058.00,0.0580
3057.00,0.0576
3056.00,0.0573
3055.00,0.0570
3054.00,0.0566
3053.00,0.0562
3052.00,0.0558
3051.00,0.0555
3050.00,0.0551
3049.00,0.0548
3048.00,0.0545
3047.00,0.0542
3046.00,0.0539
3045.00,0.0536
3044.00,0.0533
3043.00,0.0530
3042.00,0.0526
3041.00,0.0523
3040.00,0.0519
3039.00,0.0516
3038.00,0.0513
3037.00,0.0510
3036.00,0.0507
3035.00,0.0505
3034.00,0.0502
3033.00,0.0500
3032.00,0.0497
3031.00,0.0494
3030.00,0.0491
3029.00,0.0488
3028.00,0.0485
3027.00,0.0483
3026.00,0.0480
3025.00,0.0477
3024.00,0.0475
3023.00,0.0472
3022.00,0.0470
3021.00,0.0468
3020.00,0.0465
3019.00,0.0463
3018.00,0.0461
3017.00,0.0459
3016.00,0.0458
3015.00,0.0456
3014.00,0.0454
3013.00,0.0452
3012.00,0.0450
3011.00,0.0448
3010.00,0.0445
3009.00,0.0443
3008.00,0.0441
3007.00,0.0440
3006.00,0.0438
3005.00,0.0437
3004.00,0.0435
3003.00,0.0433
3002.00,0.0432
3001.00,0.0431
3000.00,0.0429
2999.00,0.0428
2998.00,0.0428
2997.00,0.0427
2996.00,0.0427
2995.00,0.0427
2994.00,0.0426
2993.00,0.0426
2992.00,0.0425
2991.00,0.0425
2990.00,0.0425
2989.00,0.0426
2988.00,0.0426
2987.00,0.0427
2986.00,0.0428
2985.00,0.0429
2984.00,0.0430
2983.00,0.0431
2982.00,0.0432
2981.00,0.0433
2980.00,0.0434
2979.00,0.0436
2978.00,0.0437
2977.00,0.0439
2976.00,0.0441
2975.00,0.0443
2974.00,0.0445
2973.00,0.0447
2972.00,0.0449
2971.00,0.0451
2970.00,0.0453
2969.00,0.0455
2968.00,0.0457
2967.00,0.0459
2966.00,0.0460
2965.00,0.0461
2964.00,0.0463
2963.00,0.0463
2962.00,0.0464
2961.00,0.0464
2960.00,0.0464
2959.00,0.0464
2958.00,0.0463
2957.00,0.0462
2956.00,0.0461
2955.00,0.0460
2954.00,0.0458
2953.00,0.0456
2952.00,0.0455
2951.00,0.0453
2950.00,0.0452
2949.00,0.0451
2948.00,0.0450
2947.00,0.0449
2946.00,0.0449
2945.00,0.0448
2944.00,0.0449
2943.00,0.0449
2942.00,0.0450
2941.00,0.0451
2940.00,0.0451
2939.00,0.0452
2938.00,0.0453
2937.00,0.0454
2936.00,0.0455
2935.00,0.0455
2934.00,0.0456
2933.00,0.0456
2932.00,0.0457
2931.00,0.0457
2930.00,0.0456
2929.00,0.0456
2928.00,0.0456
2927.00,0.0456
2926.00,0.0456
2925.00,0.0455
2924.00,0.0454
2923.00,0.0453
2922.00,0.0450
2921.00,0.0448
2920.00,0.0445
2919.00,0.0441
2918.00,0.0438
2917.00,0.0435
2916.00,0.0432
2915.00,0.0427
2914.00,0.0423
2913.00,0.0418
2912.00,0.0414
2911.00,0.0410
2910.00,0.0406
2909.00,0.0403
2908.00,0.0400
2907.00,0.0397
2906.00,0.0395
2905.00,0.0392
2904.00,0.0390
2903.00,0.0387
2902.00,0.0385
2901.00,0.0383
2900.00,0.0380
2899.00,0.0378
2898.00,0.0375
2897.00,0.0373
2896.00,0.0370
2895.00,0.0368
2894.00,0.0366
2893.00,0.0363
2892.00,0.0361
2891.00,0.0359
2890.00,0.0357
2889.00,0.0355
2888.00,0.0353
2887.00,0.0351
2886.00,0.0349
2885.00,0.0347
2884.00,0.0345
2883.00,0.0343
2882.00,0.0342
2881.00,0.0341
2880.00,0.0340
2879.00,0.0338
2878.00,0.0337
2877.00,0.0335
2876.00,0.0334
2875.00,0.0332
2874.00,0.0331
2873.00,0.0329
2872.00,0.0327
2871.00,0.0324
2870.00,0.0322
2869.00,0.0319
2868.00,0.0316
2867.00,0.0314
2866.00,0.0311
2865.00,0.0309
2864.00,0.0307
2863.00,0.0306
2862.00,0.0305
2861.00,0.0304
2860.00,0.0303
2859.00,0.0303
2858.00,0.0302
2857.00,0.0302
2856.00,0.0302
2855.00,0.0302
2854.00,0.0301
2853.00,0.0300
2852.00,0.0299
2851.00,0.0297
2850.00,0.0295
2849.00,0.0291
2848.00,0.0287
2847.00,0.0282
2846.00,0.0278
2845.00,0.0273
2844.00,0.0269
2843.00,0.0265
2842.00,0.0262
2841.00,0.0259
2840.00,0.0256
2839.00,0.0254
2838.00,0.0251
2837.00,0.0250
2836.00,0.0248
2835.00,0.0246
2834.00,0.0245
2833.00,0.0243
2832.00,0.0241
2831.00,0.0240
2830.00,0.0238
2829.00,0.0237
2828.00,0.0236
2827.00,0.0234
2826.00,0.0233
2825.00,0.0232
2824.00,0.0231
2823.00,0.0230
2822.00,0.0228
2821.00,0.0227
2820.00,0.0226
2819.00,0.0225
2818.00,0.0224
2817.00,0.0222
2816.00,0.0221
2815.00,0.0220
2814.00,0.0219
2813.00,0.0218
2812.00,0.0217
2811.00,0.0216
2810.00,0.0215
2809.00,0.0214
2808.00,0.0213
2807.00,0.0212
2806.00,0.0212
2805.00,0.0211
2804.00,0.0210
2803.00,0.0209
2802.00,0.0208
2801.00,0.0207
2800.00,0.0207
2799.00,0.0206
2798.00,0.0205
2797.00,0.0204
2796.00,0.0203
2795.00,0.0202
2794.00,0.0201
2793.00,0.0200
2792.00,0.0199
2791.00,0.0198
2790.00,0.0197
2789.00,0.0196
2788.00,0.0195
2787.00,0.0195
2786.00,0.0194
2785.00,0.0194
2784.00,0.0193
2783.00,0.0192
2782.00,0.0191
2781.00,0.0190
2780.00,0.0189
2779.00,0.0189
2778.00,0.0188
2777.00,0.0188
2776.00,0.0187
2775.00,0.0187
2774.00,0.0186
2773.00,0.0185
2772.00,0.0184
2771.00,0.0183
2770.00,0.0183
2769.00,0.0182
2768.00,0.0181
2767.00,0.0181
2766.00,0.0181
2765.00,0.0180
2764.00,0.0180
2763.00,0.0179
2762.00,0.0178
2761.00,0.0177
2760.00,0.0177
2759.00,0.0177
2758.00,0.0176
2757.00,0.0175
2756.00,0.0175
2755.00,0.0174
2754.00,0.0174
2753.00,0.0173
2752.00,0.0173
2751.00,0.0172
2750.00,0.0171
2749.00,0.0171
2748.00,0.0171
2747.00,0.0171
2746.00,0.0170
2745.00,0.0170
2744.00,0.0169
2743.00,0.0169
2742.00,0.0168
2741.00,0.0168
2740.00,0.0168
2739.00,0.0167
2738.00,0.0167
2737.00,0.0166
2736.00,0.0166
2735.00,0.0165
2734.00,0.0165
2733.00,0.0164
2732.00,0.0164
2731.00,0.0163
2730.00,0.0163
2729.00,0.0162
2728.00,0.0162
2727.00,0.0162
2726.00,0.0161
2725.00,0.0161
2724.00,0.0160
2723.00,0.0159
2722.00,0.0159
2721.00,0.0158
2720.00,0.0158
2719.00,0.0158
2718.00,0.0157
2717.00,0.0157
2716.00,0.0157
2715.00,0.0156
2714.00,0.0156
2713.00,0.0155
2712.00,0.0155
2711.00,0.0154
2710.00,0.0154
2709.00,0.0154
2708.00,0.0153
2707.00,0.0153
2706.00,0.0152
2705.00,0.0152
2704.00,0.0152
2703.00,0.0151
2702.00,0.0151
2701.00,0.0150
2700.00,0.0150
2699.00,0.0149
2698.00,0.0149
2697.00,0.0149
2696.00,0.0148
2695.00,0.0148
2694.00,0.0148
2693.00,0.0148
2692.00,0.0147
2691.00,0.0147
2690.00,0.0147
2689.00,0.0146
2688.00,0.0146
2687.00,0.0146
2686.00,0.0145
2685.00,0.0145
2684.00,0.0145
2683.00,0.0145
2682.00,0.0144
2681.00,0.0144
2680.00,0.0144
2679.00,0.0143
2678.00,0.0143
2677.00,0.0142
2676.00,0.0142
2675.00,0.0141
2674.00,0.0141
2673.00,0.0141
2672.00,0.0141
2671.00,0.0141
2670.00,0.0140
2669.00,0.0140
2668.00,0.0140
2667.00,0.0140
2666.00,0.0140
2665.00,0.0140
2664.00,0.0141
2663.00,0.0141
2662.00,0.0142
2661.00,0.0142
2660.00,0.0142
2659.00,0.0142
2658.00,0.0142
2657.00,0.0142
2656.00,0.0142
2655.00,0.0141
2654.00,0.0141
2653.00,0.0140
2652.00,0.0140
2651.00,0.0139
2650.00,0.0139
2649.00,0.0139
2648.00,0.0138
2647.00,0.0138
2646.00,0.0138
2645.00,0.0138
2644.00,0.0137
2643.00,0.0137
2642.00,0.0136
2641.00,0.0136
2640.00,0.0135
2639.00,0.0135
2638.00,0.0134
2637.00,0.0133
2636.00,0.0133
2635.00,0.0132
2634.00,0.0132
2633.00,0.0132
2632.00,0.0132
2631.00,0.0132
2630.00,0.0131
2629.00,0.0131
2628.00,0.0130
2627.00,0.0130
2626.00,0.0129
2625.00,0.0128
2624.00,0.0127
2623.00,0.0127
2622.00,0.0126
2621.00,0.0126
2620.00,0.0126
2619.00,0.0125
2618.00,0.0125
2617.00,0.0125
2616.00,0.0125
2615.00,0.0125
2614.00,0.0124
2613.00,0.0124
2612.00,0.0123
2611.00,0.0123
2610.00,0.0123
2609.00,0.0122
2608.00,0.0122
2607.00,0.0121
2606.00,0.0121
2605.00,0.0120
2604.00,0.0120
2603.00,0.0120
2602.00,0.0119
2601.00,0.0119
2600.00,0.0118
2599.00,0.0117
2598.00,0.0117
2597.00,0.0117
2596.00,0.0117
2595.00,0.0117
2594.00,0.0116
2593.00,0.0116
2592.00,0.0116
2591.00,0.0116
2590.00,0.0116
2589.00,0.0115
2588.00,0.0115
2587.00,0.0115
2586.00,0.0115
2585.00,0.0115
2584.00,0.0114
2583.00,0.0114
2582.00,0.0114
2581.00,0.0113
2580.00,0.0113
2579.00,0.0113
2578.00,0.0112
2577.00,0.0112
2576.00,0.0112
2575.00,0.0111
2574.00,0.0111
2573.00,0.0111
2572.00,0.0110
2571.00,0.0110
2570.00,0.0110
2569.00,0.0110
2568.00,0.0110
2567.00,0.0111
2566.00,0.0111
2565.00,0.0110
2564.00,0.0110
2563.00,0.0109
2562.00,0.0109
2561.00,0.0109
2560.00,0.0109
2559.00,0.0109
2558.00,0.0109
2557.00,0.0108
2556.00,0.0108
2555.00,0.0108
2554.00,0.0107
2553.00,0.0107
2552.00,0.0106
2551.00,0.0106
2550.00,0.0107
2549.00,0.0107
2548.00,0.0107
2547.00,0.0107
2546.00,0.0106
2545.00,0.0106
2544.00,0.0105
2543.00,0.0105
2542.00,0.0105
2541.00,0.0105
2540.00,0.0106
2539.00,0.0106
2538.00,0.0106
2537.00,0.0106
2536.00,0.0105
2535.00,0.0104
2534.00,0.0104
2533.00,0.0104
2532.00,0.0104
2531.00,0.0104
2530.00,0.0104
2529.00,0.0103
2528.00,0.0103
2527.00,0.0103
2526.00,0.0103
2525.00,0.0104
2524.00,0.0104
2523.00,0.0103
2522.00,0.0103
2521.00,0.0103
2520.00,0.0103
2519.00,0.0103
2518.00,0.0103
2517.00,0.0103
2516.00,0.0103
2515.00,0.0102
2514.00,0.0102
2513.00,0.0102
2512.00,0.0102
2511.00,0.0102
2510.00,0.0102
2509.00,0.0102
2508.00,0.0102
2507.00,0.0102
2506.00,0.0102
2505.00,0.0101
2504.00,0.0101
2503.00,0.0101
2502.00,0.0101
2501.00,0.0101
2500.00,0.0101
2499.00,0.0101
2498.00,0.0101
2497.00,0.0101
2496.00,0.0101
2495.00,0.0101
2494.00,0.0101
2493.00,0.0101
2492.00,0.0101
2491.00,0.0101
2490.00,0.0100
2489.00,0.0100
2488.00,0.0100
2487.00,0.0100
2486.00,0.0100
2485.00,0.0100
2484.00,0.0099
2483.00,0.0100
2482.00,0.0100
2481.00,0.0100
2480.00,0.0100
2479.00,0.0100
2478.00,0.0100
2477.00,0.0100
2476.00,0.0100
2475.00,0.0100
2474.00,0.0100
2473.00,0.0100
2472.00,0.0099
2471.00,0.0098
2470.00,0.0098
2469.00,0.0098
2468.00,0.0098
2467.00,0.0098
2466.00,0.0098
2465.00,0.0098
2464.00,0.0099
2463.00,0.0099
2462.00,0.0099
2461.00,0.0099
2460.00,0.0100
2459.00,0.0100
2458.00,0.0101
2457.00,0.0101
2456.00,0.0101
2455.00,0.0101
2454.00,0.0101
2453.00,0.0101
2452.00,0.0101
2451.00,0.0101
2450.00,0.0100
2449.00,0.0100
2448.00,0.0100
2447.00,0.0100
2446.00,0.0099
2445.00,0.0100
2444.00,0.0100
2443.00,0.0099
2442.00,0.0099
2441.00,0.0099
2440.00,0.0098
2439.00,0.0098
2438.00,0.0098
2437.00,0.0098
2436.00,0.0098
2435.00,0.0099
2434.00,0.0098
2433.00,0.0098
2432.00,0.0098
2431.00,0.0098
2430.00,0.0097
2429.00,0.0097
2428.00,0.0097
2427.00,0.0097
2426.00,0.0096
2425.00,0.0096
2424.00,0.0096
2423.00,0.0096
2422.00,0.0096
2421.00,0.0096
2420.00,0.0097
2419.00,0.0098
2418.00,0.0098
2417.00,0.0098
2416.00,0.0098
2415.00,0.0098
2414.00,0.0098
2413.00,0.0098
2412.00,0.0098
2411.00,0.0098
2410.00,0.0099
2409.00,0.0099
2408.00,0.0098
2407.00,0.0097
2406.00,0.0096
2405.00,0.0095
2404.00,0.0095
2403.00,0.0095
2402.00,0.0095
2401.00,0.0096
2400.00,0.0096
2399.00,0.0096
2398.00,0.0096
2397.00,0.0096
2396.00,0.0096
2395.00,0.0096
2394.00,0.0096
2393.00,0.0097
2392.00,0.0097
2391.00,0.0097
2390.00,0.0097
2389.00,0.0097
2388.00,0.0097
2387.00,0.0097
2386.00,0.0097
2385.00,0.0097
2384.00,0.0097
2383.00,0.0096
2382.00,0.0095
2381.00,0.0095
2380.00,0.0094
2379.00,0.0093
2378.00,0.0093
2377.00,0.0094
2376.00,0.0094
2375.00,0.0095
2374.00,0.0095
2373.00,0.0096
2372.00,0.0096
2371.00,0.0096
2370.00,0.0096
2369.00,0.0095
2368.00,0.0095
2367.00,0.0094
2366.00,0.0094
2365.00,0.0094
2364.00,0.0095
2363.00,0.0096
2362.00,0.0097
2361.00,0.0098
2360.00,0.0098
2359.00,0.0099
2358.00,0.0099
2357.00,0.0099
2356.00,0.0099
2355.00,0.0100
2354.00,0.0100
2353.00,0.0100
2352.00,0.0100
2351.00,0.0100
2350.00,0.0101
2349.00,0.0101
2348.00,0.0101
2347.00,0.0101
2346.00,0.0101
2345.00,0.0101
2344.00,0.0103
2343.00,0.0104
2342.00,0.0105
2341.00,0.0106
2340.00,0.0106
2339.00,0.0107
2338.00,0.0107
2337.00,0.0108
2336.00,0.0108
2335.00,0.0108
2334.00,0.0108
2333.00,0.0107
2332.00,0.0107
2331.00,0.0107
2330.00,0.0107
2329.00,0.0109
2328.00,0.0111
2327.00,0.0116
2326.00,0.0121
2325.00,0.0126
2324.00,0.0128
2323.00,0.0127
2322.00,0.0125
2321.00,0.0122
2320.00,0.0121
2319.00,0.0120
2318.00,0.0120
2317.00,0.0119
2316.00,0.0118
2315.00,0.0117
2314.00,0.0117
2313.00,0.0116
2312.00,0.0116
2311.00,0.0116
2310.00,0.0116
2309.00,0.0116
2308.00,0.0116
2307.00,0.0116
2306.00,0.0116
2305.00,0.0116
2304.00,0.0116
2303.00,0.0116
2302.00,0.0116
2301.00,0.0116
2300.00,0.0116
2299.00,0.0116
2298.00,0.0116
2297.00,0.0117
2296.00,0.0118
2295.00,0.0119
2294.00,0.0121
2293.00,0.0122
2292.00,0.0123
2291.00,0.0124
2290.00,0.0124
2289.00,0.0124
2288.00,0.0125
2287.00,0.0125
2286.00,0.0126
2285.00,0.0126
2284.00,0.0125
2283.00,0.0124
2282.00,0.0123
2281.00,0.0122
2280.00,0.0122
2279.00,0.0121
2278.00,0.0120
2277.00,0.0118
2276.00,0.0117
2275.00,0.0117
2274.00,0.0116
2273.00,0.0117
2272.00,0.0117
2271.00,0.0117
2270.00,0.0117
2269.00,0.0116
2268.00,0.0117
2267.00,0.0117
2266.00,0.0118
2265.00,0.0117
2264.00,0.0116
2263.00,0.0116
2262.00,0.0116
2261.00,0.0116
2260.00,0.0116
2259.00,0.0116
2258.00,0.0116
2257.00,0.0116
2256.00,0.0115
2255.00,0.0114
2254.00,0.0113
2253.00,0.0112
2252.00,0.0112
2251.00,0.0113
2250.00,0.0113
2249.00,0.0114
2248.00,0.0114
2247.00,0.0113
2246.00,0.0112
2245.00,0.0112
2244.00,0.0113
2243.00,0.0114
2242.00,0.0115
2241.00,0.0116
2240.00,0.0116
2239.00,0.0116
2238.00,0.0117
2237.00,0.0117
2236.00,0.0117
2235.00,0.0116
2234.00,0.0114
2233.00,0.0114
2232.00,0.0113
2231.00,0.0114
2230.00,0.0114
2229.00,0.0113
2228.00,0.0113
2227.00,0.0111
2226.00,0.0110
2225.00,0.0109
2224.00,0.0110
2223.00,0.0111
2222.00,0.0112
2221.00,0.0112
2220.00,0.0112
2219.00,0.0111
2218.00,0.0110
2217.00,0.0109
2216.00,0.0108
2215.00,0.0108
2214.00,0.0107
2213.00,0.0107
2212.00,0.0107
2211.00,0.0108
2210.00,0.0109
2209.00,0.0109
2208.00,0.0109
2207.00,0.0109
2206.00,0.0108
2205.00,0.0109
2204.00,0.0110
2203.00,0.0111
2202.00,0.0111
2201.00,0.0110
2200.00,0.0109
2199.00,0.0109
2198.00,0.0109
2197.00,0.0110
2196.00,0.0110
2195.00,0.0108
2194.00,0.0107
2193.00,0.0108
2192.00,0.0110
2191.00,0.0113
2190.00,0.0114
2189.00,0.0113
2188.00,0.0112
2187.00,0.0111
2186.00,0.0109
2185.00,0.0107
2184.00,0.0104
2183.00,0.0101
2182.00,0.0098
2181.00,0.0096
2180.00,0.0098
2179.00,0.0100
2178.00,0.0103
2177.00,0.0104
2176.00,0.0104
2175.00,0.0104
2174.00,0.0103
2173.00,0.0103
2172.00,0.0104
2171.00,0.0106
2170.00,0.0108
2169.00,0.0110
2168.00,0.0112
2167.00,0.0113
2166.00,0.0113
2165.00,0.0114
2164.00,0.0116
2163.00,0.0117
2162.00,0.0116
2161.00,0.0110
2160.00,0.0099
2159.00,0.0085
2158.00,0.0073
2157.00,0.0065
2156.00,0.0063
2155.00,0.0064
2154.00,0.0066
2153.00,0.0070
2152.00,0.0074
2151.00,0.0079
2150.00,0.0082
2149.00,0.0084
2148.00,0.0085
2147.00,0.0084
2146.00,0.0084
2145.00,0.0085
2144.00,0.0087
2143.00,0.0089
2142.00,0.0091
2141.00,0.0092
2140.00,0.0093
2139.00,0.0093
2138.00,0.0093
2137.00,0.0092
2136.00,0.0091
2135.00,0.0089
2134.00,0.0087
2133.00,0.0085
2132.00,0.0086
2131.00,0.0088
2130.00,0.0090
2129.00,0.0093
2128.00,0.0096
2127.00,0.0099
2126.00,0.0102
2125.00,0.0104
2124.00,0.0106
2123.00,0.0107
2122.00,0.0108
2121.00,0.0109
2120.00,0.0110
2119.00,0.0112
2118.00,0.0113
2117.00,0.0114
2116.00,0.0115
2115.00,0.0116
2114.00,0.0117
2113.00,0.0118
2112.00,0.0119
2111.00,0.0120
2110.00,0.0120
2109.00,0.0119
2108.00,0.0119
2107.00,0.0119
2106.00,0.0119
2105.00,0.0120
2104.00,0.0121
2103.00,0.0122
2102.00,0.0122
2101.00,0.0121
2100.00,0.0121
2099.00,0.0119
2098.00,0.0118
2097.00,0.0116
2096.00,0.0114
2095.00,0.0112
2094.00,0.0110
2093.00,0.0108
2092.00,0.0108
2091.00,0.0108
2090.00,0.0110
2089.00,0.0113
2088.00,0.0115
2087.00,0.0116
2086.00,0.0116
2085.00,0.0116
2084.00,0.0116
2083.00,0.0116
2082.00,0.0115
2081.00,0.0115
2080.00,0.0115
2079.00,0.0114
2078.00,0.0112
2077.00,0.0111
2076.00,0.0110
2075.00,0.0111
2074.00,0.0111
2073.00,0.0111
2072.00,0.0110
2071.00,0.0110
2070.00,0.0110
2069.00,0.0110
2068.00,0.0111
2067.00,0.0109
2066.00,0.0106
2065.00,0.0103
2064.00,0.0102
2063.00,0.0101
2062.00,0.0101
2061.00,0.0101
2060.00,0.0101
2059.00,0.0101
2058.00,0.0100
2057.00,0.0100
2056.00,0.0101
2055.00,0.0101
2054.00,0.0102
2053.00,0.0105
2052.00,0.0109
2051.00,0.0111
2050.00,0.0110
2049.00,0.0105
2048.00,0.0099
2047.00,0.0094
2046.00,0.0091
2045.00,0.0090
2044.00,0.0090
2043.00,0.0091
2042.00,0.0090
2041.00,0.0088
2040.00,0.0087
2039.00,0.0086
2038.00,0.0085
2037.00,0.0084
2036.00,0.0084
2035.00,0.0081
2034.00,0.0078
2033.00,0.0074
2032.00,0.0071
2031.00,0.0069
2030.00,0.0067
2029.00,0.0066
2028.00,0.0067
2027.00,0.0067
2026.00,0.0068
2025.00,0.0068
2024.00,0.0069
2023.00,0.0069
2022.00,0.0067
2021.00,0.0066
2020.00,0.0065
2019.00,0.0064
2018.00,0.0064
2017.00,0.0064
2016.00,0.0066
2015.00,0.0066
2014.00,0.0067
2013.00,0.0068
2012.00,0.0071
2011.00,0.0073
2010.00,0.0073
2009.00,0.0072
2008.00,0.0069
2007.00,0.0064
2006.00,0.0059
2005.00,0.0056
2004.00,0.0056
2003.00,0.0057
2002.00,0.0059
2001.00,0.0062
2000.00,0.0065
1999.00,0.0067
1998.00,0.0069
1997.00,0.0072
1996.00,0.0075
1995.00,0.0078
1994.00,0.0079
1993.00,0.0079
1992.00,0.0080
1991.00,0.0080
1990.00,0.0081
1989.00,0.0083
1988.00,0.0085
1987.00,0.0085
1986.00,0.0084
1985.00,0.0082
1984.00,0.0081
1983.00,0.0081
1982.00,0.0083
1981.00,0.0085
1980.00,0.0088
1979.00,0.0085
1978.00,0.0077
1977.00,0.0068
1976.00,0.0062
1975.00,0.0059
1974.00,0.0058
1973.00,0.0058
1972.00,0.0058
1971.00,0.0057
1970.00,0.0056
1969.00,0.0054
1968.00,0.0053
1967.00,0.0052
1966.00,0.0052
1965.00,0.0055
1964.00,0.0060
1963.00,0.0064
1962.00,0.0066
1961.00,0.0065
1960.00,0.0063
1959.00,0.0060
1958.00,0.0059
1957.00,0.0060
1956.00,0.0063
1955.00,0.0067
1954.00,0.0068
1953.00,0.0069
1952.00,0.0070
1951.00,0.0069
1950.00,0.0067
1949.00,0.0066
1948.00,0.0066
1947.00,0.0067
1946.00,0.0067
1945.00,0.0067
1944.00,0.0068
1943.00,0.0068
1942.00,0.0068
1941.00,0.0069
1940.00,0.0070
1939.00,0.0071
1938.00,0.0071
1937.00,0.0071
1936.00,0.0071
1935.00,0.0070
1934.00,0.0070
1933.00,0.0070
1932.00,0.0069
1931.00,0.0068
1930.00,0.0067
1929.00,0.0067
1928.00,0.0067
1927.00,0.0067
1926.00,0.0067
1925.00,0.0067
1924.00,0.0067
1923.00,0.0067
1922.00,0.0067
1921.00,0.0068
1920.00,0.0070
1919.00,0.0072
1918.00,0.0073
1917.00,0.0073
1916.00,0.0073
1915.00,0.0072
1914.00,0.0070
1913.00,0.0069
1912.00,0.0069
1911.00,0.0069
1910.00,0.0069
1909.00,0.0068
1908.00,0.0069
1907.00,0.0070
1906.00,0.0071
1905.00,0.0071
1904.00,0.0072
1903.00,0.0071
1902.00,0.0070
1901.00,0.0069
1900.00,0.0069
1899.00,0.0068
1898.00,0.0068
1897.00,0.0068
1896.00,0.0068
1895.00,0.0069
1894.00,0.0068
1893.00,0.0067
1892.00,0.0066
1891.00,0.0066
1890.00,0.0065
1889.00,0.0066
1888.00,0.0066
1887.00,0.0066
1886.00,0.0065
1885.00,0.0065
1884.00,0.0065
1883.00,0.0065
1882.00,0.0065
1881.00,0.0064
1880.00,0.0064
1879.00,0.0064
1878.00,0.0063
1877.00,0.0063
1876.00,0.0064
1875.00,0.0064
1874.00,0.0063
1873.00,0.0062
1872.00,0.0062
1871.00,0.0061
1870.00,0.0060
1869.00,0.0060
1868.00,0.0061
1867.00,0.0061
1866.00,0.0062
1865.00,0.0062
1864.00,0.0063
1863.00,0.0063
1862.00,0.0063
1861.00,0.0062
1860.00,0.0062
1859.00,0.0062
1858.00,0.0062
1857.00,0.0062
1856.00,0.0062
1855.00,0.0061
1854.00,0.0061
1853.00,0.0060
1852.00,0.0059
1851.00,0.0059
1850.00,0.0058
1849.00,0.0057
1848.00,0.0057
1847.00,0.0057
1846.00,0.0057
1845.00,0.0058
1844.00,0.0059
1843.00,0.0060
1842.00,0.0060
1841.00,0.0061
1840.00,0.0060
1839.00,0.0060
1838.00,0.0060
1837.00,0.0059
1836.00,0.0059
1835.00,0.0059
1834.00,0.0057
1833.00,0.0056
1832.00,0.0056
1831.00,0.0057
1830.00,0.0057
1829.00,0.0057
1828.00,0.0057
1827.00,0.0057
1826.00,0.0057
1825.00,0.0057
1824.00,0.0058
1823.00,0.0059
1822.00,0.0059
1821.00,0.0059
1820.00,0.0058
1819.00,0.0056
1818.00,0.0055
1817.00,0.0054
1816.00,0.0054
1815.00,0.0055
1814.00,0.0056
1813.00,0.0057
1812.00,0.0057
1811.00,0.0057
1810.00,0.0057
1809.00,0.0057
1808.00,0.0057
1807.00,0.0058
1806.00,0.0057
1805.00,0.0057
1804.00,0.0056
1803.00,0.0055
1802.00,0.0055
1801.00,0.0056
1800.00,0.0057
1799.00,0.0058
1798.00,0.0057
1797.00,0.0056
1796.00,0.0055
1795.00,0.0055
1794.00,0.0056
1793.00,0.0056
1792.00,0.0056
1791.00,0.0056
1790.00,0.0056
1789.00,0.0057
1788.00,0.0057
1787.00,0.0056
1786.00,0.0056
1785.00,0.0055
1784.00,0.0055
1783.00,0.0056
1782.00,0.0056
1781.00,0.0057
1780.00,0.0058
1779.00,0.0057
1778.00,0.0056
1777.00,0.0055
1776.00,0.0054
1775.00,0.0054
1774.00,0.0055
1773.00,0.0056
1772.00,0.0057
1771.00,0.0057
1770.00,0.0056
1769.00,0.0057
1768.00,0.0058
1767.00,0.0058
1766.00,0.0058
1765.00,0.0058
1764.00,0.0058
1763.00,0.0058
1762.00,0.0059
1761.00,0.0059
1760.00,0.0059
1759.00,0.0060
1758.00,0.0061
1757.00,0.0063
1756.00,0.0065
1755.00,0.0066
1754.00,0.0066
1753.00,0.0067
1752.00,0.0068
1751.00,0.0070
1750.00,0.0074
1749.00,0.0078
1748.00,0.0083
1747.00,0.0086
1746.00,0.0088
1745.00,0.0089
1744.00,0.0091
1743.00,0.0094
1742.00,0.0097
1741.00,0.0100
1740.00,0.0103
1739.00,0.0104
1738.00,0.0103
1737.00,0.0103
1736.00,0.0104
1735.00,0.0106
1734.00,0.0108
1733.00,0.0110
1732.00,0.0112
1731.00,0.0115
1730.00,0.0118
1729.00,0.0120
1728.00,0.0123
1727.00,0.0125
1726.00,0.0126
1725.00,0.0128
1724.00,0.0131
1723.00,0.0134
1722.00,0.0135
1721.00,0.0136
1720.00,0.0137
1719.00,0.0139
1718.00,0.0141
1717.00,0.0146
1716.00,0.0154
1715.00,0.0161
1714.00,0.0168
1713.00,0.0173
1712.00,0.0178
1711.00,0.0183
1710.00,0.0188
1709.00,0.0193
1708.00,0.0199
1707.00,0.0206
1706.00,0.0214
1705.00,0.0223
1704.00,0.0230
1703.00,0.0238
1702.00,0.0247
1701.00,0.0261
1700.00,0.0278
1699.00,0.0292
1698.00,0.0304
1697.00,0.0320
1696.00,0.0341
1695.00,0.0364
1694.00,0.0382
1693.00,0.0397
1692.00,0.0413
1691.00,0.0429
1690.00,0.0446
1689.00,0.0464
1688.00,0.0481
1687.00,0.0496
1686.00,0.0513
1685.00,0.0536
1684.00,0.0567
1683.00,0.0596
1682.00,0.0617
1681.00,0.0636
1680.00,0.0655
1679.00,0.0673
1678.00,0.0691
1677.00,0.0710
1676.00,0.0732
1675.00,0.0757
1674.00,0.0780
1673.00,0.0800
1672.00,0.0819
1671.00,0.0839
1670.00,0.0863
1669.00,0.0889
1668.00,0.0915
1667.00,0.0937
1666.00,0.0956
1665.00,0.0975
1664.00,0.0996
1663.00,0.1021
1662.00,0.1047
1661.00,0.1072
1660.00,0.1094
1659.00,0.1114
1658.00,0.1130
1657.00,0.1144
1656.00,0.1155
1655.00,0.1167
1654.00,0.1186
1653.00,0.1214
1652.00,0.1241
1651.00,0.1258
1650.00,0.1268
1649.00,0.1274
1648.00,0.1281
1647.00,0.1292
1646.00,0.1305
1645.00,0.1316
1644.00,0.1324
1643.00,0.1329
1642.00,0.1332
1641.00,0.1333
1640.00,0.1334
1639.00,0.1335
1638.00,0.1334
1637.00,0.1332
1636.00,0.1332
1635.00,0.1333
1634.00,0.1331
1633.00,0.1327
1632.00,0.1321
1631.00,0.1313
1630.00,0.1302
1629.00,0.1288
1628.00,0.1275
1627.00,0.1261
1626.00,0.1247
1625.00,0.1232
1624.00,0.1215
1623.00,0.1195
1622.00,0.1176
1621.00,0.1158
1620.00,0.1141
1619.00,0.1123
1618.00,0.1102
1617.00,0.1077
1616.00,0.1053
1615.00,0.1032
1614.00,0.1013
1613.00,0.0994
1612.00,0.0973
1611.00,0.0950
1610.00,0.0928
1609.00,0.0906
1608.00,0.0884
1607.00,0.0864
1606.00,0.0844
1605.00,0.0824
1604.00,0.0805
1603.00,0.0786
1602.00,0.0767
1601.00,0.0748
1600.00,0.0730
1599.00,0.0713
1598.00,0.0696
1597.00,0.0679
1596.00,0.0663
1595.00,0.0648
1594.00,0.0633
1593.00,0.0619
1592.00,0.0605
1591.00,0.0592
1590.00,0.0579
1589.00,0.0568
1588.00,0.0558
1587.00,0.0548
1586.00,0.0539
1585.00,0.0531
1584.00,0.0523
1583.00,0.0516
1582.00,0.0509
1581.00,0.0503
1580.00,0.0497
1579.00,0.0492
1578.00,0.0487
1577.00,0.0485
1576.00,0.0485
1575.00,0.0485
1574.00,0.0484
1573.00,0.0484
1572.00,0.0482
1571.00,0.0482
1570.00,0.0484
1569.00,0.0486
1568.00,0.0489
1567.00,0.0491
1566.00,0.0494
1565.00,0.0497
1564.00,0.0500
1563.00,0.0501
1562.00,0.0500
1561.00,0.0501
1560.00,0.0504
1559.00,0.0518
1558.00,0.0536
1557.00,0.0546
1556.00,0.0551
1555.00,0.0556
1554.00,0.0561
1553.00,0.0566
1552.00,0.0569
1551.00,0.0572
1550.00,0.0576
1549.00,0.0578
1548.00,0.0579
1547.00,0.0577
1546.00,0.0573
1545.00,0.0569
1544.00,0.0565
1543.00,0.0562
1542.00,0.0560
1541.00,0.0557
1540.00,0.0554
1539.00,0.0549
1538.00,0.0542
1537.00,0.0535
1536.00,0.0527
1535.00,0.0519
1534.00,0.0509
1533.00,0.0499
1532.00,0.0490
1531.00,0.0481
1530.00,0.0472
1529.00,0.0461
1528.00,0.0449
1527.00,0.0438
1526.00,0.0428
1525.00,0.0418
1524.00,0.0408
1523.00,0.0398
1522.00,0.0389
1521.00,0.0380
1520.00,0.0372
1519.00,0.0365
1518.00,0.0357
1517.00,0.0348
1516.00,0.0339
1515.00,0.0328
1514.00,0.0317
1513.00,0.0305
1512.00,0.0290
1511.00,0.0275
1510.00,0.0260
1509.00,0.0245
1508.00,0.0234
1507.00,0.0227
1506.00,0.0222
1505.00,0.0214
1504.00,0.0206
1503.00,0.0198
1502.00,0.0189
1501.00,0.0181
1500.00,0.0172
1499.00,0.0163
1498.00,0.0155
1497.00,0.0149
1496.00,0.0144
1495.00,0.0138
1494.00,0.0133
1493.00,0.0126
1492.00,0.0119
1491.00,0.0112
1490.00,0.0107
1489.00,0.0105
1488.00,0.0105
1487.00,0.0104
1486.00,0.0104
1485.00,0.0102
1484.00,0.0101
1483.00,0.0101
1482.00,0.0102
1481.00,0.0104
1480.00,0.0106
1479.00,0.0108
1478.00,0.0110
1477.00,0.0112
1476.00,0.0115
1475.00,0.0120
1474.00,0.0127
1473.00,0.0137
1472.00,0.0149
1471.00,0.0158
1470.00,0.0165
1469.00,0.0170
1468.00,0.0173
1467.00,0.0176
1466.00,0.0179
1465.00,0.0184
1464.00,0.0190
1463.00,0.0195
1462.00,0.0197
1461.00,0.0198
1460.00,0.0198
1459.00,0.0198
1458.00,0.0203
1457.00,0.0212
1456.00,0.0220
1455.00,0.0225
1454.00,0.0227
1453.00,0.0228
1452.00,0.0227
1451.00,0.0226
1450.00,0.0224
1449.00,0.0223
1448.00,0.0222
1447.00,0.0223
1446.00,0.0223
1445.00,0.0223
1444.00,0.0223
1443.00,0.0223
1442.00,0.0222
1441.00,0.0221
1440.00,0.0219
1439.00,0.0218
1438.00,0.0217
1437.00,0.0219
1436.00,0.0223
1435.00,0.0227
1434.00,0.0229
1433.00,0.0232
1432.00,0.0234
1431.00,0.0237
1430.00,0.0241
1429.00,0.0246
1428.00,0.0250
1427.00,0.0254
1426.00,0.0257
1425.00,0.0260
1424.00,0.0264
1423.00,0.0268
1422.00,0.0271
1421.00,0.0272
1420.00,0.0274
1419.00,0.0278
1418.00,0.0283
1417.00,0.0288
1416.00,0.0291
1415.00,0.0292
1414.00,0.0292
1413.00,0.0290
1412.00,0.0288
1411.00,0.0286
1410.00,0.0284
1409.00,0.0282
1408.00,0.0279
1407.00,0.0275
1406.00,0.0271
1405.00,0.0267
1404.00,0.0264
1403.00,0.0260
1402.00,0.0255
1401.00,0.0249
1400.00,0.0243
1399.00,0.0236
1398.00,0.0230
1397.00,0.0224
1396.00,0.0220
1395.00,0.0216
1394.00,0.0214
1393.00,0.0212
1392.00,0.0209
1391.00,0.0206
1390.00,0.0201
1389.00,0.0197
1388.00,0.0195
1387.00,0.0195
1386.00,0.0196
1385.00,0.0197
1384.00,0.0197
1383.00,0.0197
1382.00,0.0197
1381.00,0.0197
1380.00,0.0197
1379.00,0.0197
1378.00,0.0197
1377.00,0.0197
1376.00,0.0196
1375.00,0.0195
1374.00,0.0196
1373.00,0.0197
1372.00,0.0198
1371.00,0.0198
1370.00,0.0197
1369.00,0.0196
1368.00,0.0195
1367.00,0.0193
1366.00,0.0189
1365.00,0.0185
1364.00,0.0179
1363.00,0.0175
1362.00,0.0173
1361.00,0.0173
1360.00,0.0172
1359.00,0.0171
1358.00,0.0169
1357.00,0.0166
1356.00,0.0163
1355.00,0.0160
1354.00,0.0157
1353.00,0.0154
1352.00,0.0150
1351.00,0.0146
1350.00,0.0142
1349.00,0.0138
1348.00,0.0133
1347.00,0.0129
1346.00,0.0124
1345.00,0.0119
1344.00,0.0114
1343.00,0.0107
1342.00,0.0100
1341.00,0.0093
1340.00,0.0087
1339.00,0.0083
1338.00,0.0081
1337.00,0.0079
1336.00,0.0077
1335.00,0.0074
1334.00,0.0070
1333.00,0.0067
1332.00,0.0063
1331.00,0.0060
1330.00,0.0058
1329.00,0.0057
1328.00,0.0057
1327.00,0.0057
1326.00,0.0057
1325.00,0.0058
1324.00,0.0059
1323.00,0.0059
1322.00,0.0060
1321.00,0.0062
1320.00,0.0063
1319.00,0.0066
1318.00,0.0068
1317.00,0.0070
1316.00,0.0071
1315.00,0.0072
1314.00,0.0073
1313.00,0.0074
1312.00,0.0075
1311.00,0.0077
1310.00,0.0078
1309.00,0.0079
1308.00,0.0080
1307.00,0.0082
1306.00,0.0085
1305.00,0.0088
1304.00,0.0092
1303.00,0.0097
1302.00,0.0102
1301.00,0.0107
1300.00,0.0114
1299.00,0.0121
1298.00,0.0129
1297.00,0.0139
1296.00,0.0149
1295.00,0.0161
1294.00,0.0173
1293.00,0.0187
1292.00,0.0202
1291.00,0.0218
1290.00,0.0235
1289.00,0.0255
1288.00,0.0275
1287.00,0.0297
1286.00,0.0320
1285.00,0.0345
1284.00,0.0370
1283.00,0.0395
1282.00,0.0421
1281.00,0.0448
1280.00,0.0475
1279.00,0.0503
1278.00,0.0530
1277.00,0.0558
1276.00,0.0587
1275.00,0.0615
1274.00,0.0642
1273.00,0.0670
1272.00,0.0698
1271.00,0.0726
1270.00,0.0754
1269.00,0.0781
1268.00,0.0809
1267.00,0.0836
1266.00,0.0862
1265.00,0.0886
1264.00,0.0910
1263.00,0.0932
1262.00,0.0953
1261.00,0.0974
1260.00,0.0994
1259.00,0.1012
1258.00,0.1029
1257.00,0.1046
1256.00,0.1061
1255.00,0.1075
1254.00,0.1089
1253.00,0.1101
1252.00,0.1113
1251.00,0.1124
1250.00,0.1134
1249.00,0.1145
1248.00,0.1156
1247.00,0.1167
1246.00,0.1176
1245.00,0.1186
1244.00,0.1196
1243.00,0.1206
1242.00,0.1216
1241.00,0.1227
1240.00,0.1238
1239.00,0.1249
1238.00,0.1260
1237.00,0.1271
1236.00,0.1282
1235.00,0.1293
1234.00,0.1304
1233.00,0.1315
1232.00,0.1325
1231.00,0.1336
1230.00,0.1346
1229.00,0.1356
1228.00,0.1367
1227.00,0.1377
1226.00,0.1387
1225.00,0.1396
1224.00,0.1405
1223.00,0.1412
1222.00,0.1418
1221.00,0.1422
1220.00,0.1424
1219.00,0.1425
1218.00,0.1423
1217.00,0.1420
1216.00,0.1414
1215.00,0.1406
1214.00,0.1394
1213.00,0.1380
1212.00,0.1364
1211.00,0.1345
1210.00,0.1323
1209.00,0.1300
1208.00,0.1275
1207.00,0.1249
1206.00,0.1222
1205.00,0.1193
1204.00,0.1164
1203.00,0.1134
1202.00,0.1103
1201.00,0.1072
1200.00,0.1042
1199.00,0.1014
1198.00,0.0986
1197.00,0.0960
1196.00,0.0936
1195.00,0.0913
1194.00,0.0891
1193.00,0.0870
1192.00,0.0850
1191.00,0.0831
1190.00,0.0812
1189.00,0.0794
1188.00,0.0777
1187.00,0.0761
1186.00,0.0747
1185.00,0.0735
1184.00,0.0725
1183.00,0.0717
1182.00,0.0710
1181.00,0.0706
1180.00,0.0703
1179.00,0.0701
1178.00,0.0701
1177.00,0.0701
1176.00,0.0704
1175.00,0.0709
1174.00,0.0715
1173.00,0.0725
1172.00,0.0737
1171.00,0.0750
1170.00,0.0766
1169.00,0.0783
1168.00,0.0802
1167.00,0.0823
1166.00,0.0844
1165.00,0.0866
1164.00,0.0888
1163.00,0.0910
1162.00,0.0931
1161.00,0.0952
1160.00,0.0973
1159.00,0.0992
1158.00,0.1009
1157.00,0.1025
1156.00,0.1039
1155.00,0.1051
1154.00,0.1061
1153.00,0.1069
1152.00,0.1076
1151.00,0.1080
1150.00,0.1082
1149.00,0.1081
1148.00,0.1079
1147.00,0.1074
1146.00,0.1067
1145.00,0.1059
1144.00,0.1050
1143.00,0.1039
1142.00,0.1028
1141.00,0.1018
1140.00,0.1008
1139.00,0.0998
1138.00,0.0987
1137.00,0.0977
1136.00,0.0967
1135.00,0.0957
1134.00,0.0949
1133.00,0.0942
1132.00,0.0938
1131.00,0.0936
1130.00,0.0937
1129.00,0.0939
1128.00,0.0943
1127.00,0.0946
1126.00,0.0947
1125.00,0.0943
1124.00,0.0936
1123.00,0.0924
1122.00,0.0908
1121.00,0.0891
1120.00,0.0873
1119.00,0.0854
1118.00,0.0835
1117.00,0.0817
1116.00,0.0801
1115.00,0.0787
1114.00,0.0775
1113.00,0.0767
1112.00,0.0762
1111.00,0.0759
1110.00,0.0758
1109.00,0.0760
1108.00,0.0765
1107.00,0.0773
1106.00,0.0783
1105.00,0.0795
1104.00,0.0808
1103.00,0.0823
1102.00,0.0838
1101.00,0.0855
1100.00,0.0871
1099.00,0.0888
1098.00,0.0905
1097.00,0.0924
1096.00,0.0942
1095.00,0.0960
1094.00,0.0978
1093.00,0.0996
1092.00,0.1015
1091.00,0.1035
1090.00,0.1055
1089.00,0.1076
1088.00,0.1099
1087.00,0.1123
1086.00,0.1147
1085.00,0.1173
1084.00,0.1200
1083.00,0.1226
1082.00,0.1252
1081.00,0.1279
1080.00,0.1306
1079.00,0.1333
1078.00,0.1358
1077.00,0.1381
1076.00,0.1401
1075.00,0.1418
1074.00,0.1430
1073.00,0.1437
1072.00,0.1441
1071.00,0.1440
1070.00,0.1435
1069.00,0.1428
1068.00,0.1419
1067.00,0.1410
1066.00,0.1402
1065.00,0.1395
1064.00,0.1391
1063.00,0.1388
1062.00,0.1386
1061.00,0.1387
1060.00,0.1390
1059.00,0.1395
1058.00,0.1402
1057.00,0.1412
1056.00,0.1424
1055.00,0.1437
1054.00,0.1451
1053.00,0.1465
1052.00,0.1482
1051.00,0.1500
1050.00,0.1519
1049.00,0.1541
1048.00,0.1564
1047.00,0.1588
1046.00,0.1611
1045.00,0.1632
1044.00,0.1652
1043.00,0.1670
1042.00,0.1686
1041.00,0.1700
1040.00,0.1714
1039.00,0.1726
1038.00,0.1736
1037.00,0.1747
1036.00,0.1759
1035.00,0.1772
1034.00,0.1785
1033.00,0.1801
1032.00,0.1818
1031.00,0.1835
1030.00,0.1851
1029.00,0.1868
1028.00,0.1885
1027.00,0.1902
1026.00,0.1920
1025.00,0.1939
1024.00,0.1958
1023.00,0.1977
1022.00,0.1994
1021.00,0.2011
1020.00,0.2025
1019.00,0.2037
1018.00,0.2044
1017.00,0.2049
1016.00,0.2050
1015.00,0.2046
1014.00,0.2037
1013.00,0.2024
1012.00,0.2008
1011.00,0.1987
1010.00,0.1963
1009.00,0.1937
1008.00,0.1911
1007.00,0.1882
1006.00,0.1852
1005.00,0.1823
1004.00,0.1793
1003.00,0.1764
1002.00,0.1733
1001.00,0.1702
1000.00,0.1672
999.00,0.1640
998.00,0.1606
997.00,0.1571
996.00,0.1533
995.00,0.1494
994.00,0.1453
993.00,0.1411
992.00,0.1368
991.00,0.1323
990.00,0.1278
989.00,0.1233
988.00,0.1190
987.00,0.1147
986.00,0.1106
985.00,0.1067
984.00,0.1029
983.00,0.0994
982.00,0.0962
981.00,0.0931
980.00,0.0902
979.00,0.0875
978.00,0.0848
977.00,0.0822
976.00,0.0796
975.00,0.0769
974.00,0.0742
973.00,0.0713
972.00,0.0685
971.00,0.0655
970.00,0.0625
969.00,0.0594
968.00,0.0562
967.00,0.0529
966.00,0.0497
965.00,0.0467
964.00,0.0437
963.00,0.0408
962.00,0.0381
961.00,0.0356
960.00,0.0333
959.00,0.0311
958.00,0.0292
957.00,0.0274
956.00,0.0258
955.00,0.0243
954.00,0.0229
953.00,0.0217
952.00,0.0206
951.00,0.0197
950.00,0.0189
949.00,0.0182
948.00,0.0177
947.00,0.0173
946.00,0.0173
945.00,0.0174
944.00,0.0178
943.00,0.0183
942.00,0.0190
941.00,0.0199
940.00,0.0208
939.00,0.0217
938.00,0.0226
937.00,0.0233
936.00,0.0239
935.00,0.0243
934.00,0.0243
933.00,0.0241
932.00,0.0235
931.00,0.0225
930.00,0.0213
929.00,0.0198
928.00,0.0182
927.00,0.0164
926.00,0.0146
925.00,0.0129
924.00,0.0113
923.00,0.0098
922.00,0.0085
921.00,0.0074
920.00,0.0066
919.00,0.0059
918.00,0.0055
917.00,0.0053
916.00,0.0052
915.00,0.0051
914.00,0.0052
913.00,0.0054
912.00,0.0058
911.00,0.0062
910.00,0.0067
909.00,0.0072
908.00,0.0075
907.00,0.0078
906.00,0.0080
905.00,0.0081
904.00,0.0081
903.00,0.0081
902.00,0.0080
901.00,0.0080
900.00,0.0079
899.00,0.0079
898.00,0.0078
897.00,0.0077
896.00,0.0076
895.00,0.0076
894.00,0.0077
893.00,0.0079
892.00,0.0080
891.00,0.0082
890.00,0.0083
889.00,0.0085
888.00,0.0087
887.00,0.0088
886.00,0.0088
885.00,0.0086
884.00,0.0083
883.00,0.0079
882.00,0.0073
881.00,0.0067
880.00,0.0062
879.00,0.0058
878.00,0.0055
877.00,0.0053
876.00,0.0052
875.00,0.0052
874.00,0.0053
873.00,0.0053
872.00,0.0054
871.00,0.0054
870.00,0.0054
869.00,0.0054
868.00,0.0054
867.00,0.0054
866.00,0.0055
865.00,0.0056
864.00,0.0058
863.00,0.0060
862.00,0.0064
861.00,0.0070
860.00,0.0077
859.00,0.0084
858.00,0.0092
857.00,0.0101
856.00,0.0112
855.00,0.0123
854.00,0.0136
853.00,0.0150
852.00,0.0164
851.00,0.0178
850.00,0.0191
849.00,0.0205
848.00,0.0218
847.00,0.0231
846.00,0.0243
845.00,0.0255
844.00,0.0268
843.00,0.0280
842.00,0.0293
841.00,0.0307
840.00,0.0321
839.00,0.0337
838.00,0.0352
837.00,0.0368
836.00,0.0383
835.00,0.0396
834.00,0.0406
833.00,0.0414
832.00,0.0420
831.00,0.0423
830.00,0.0422
829.00,0.0417
828.00,0.0410
827.00,0.0401
826.00,0.0390
825.00,0.0378
824.00,0.0365
823.00,0.0352
822.00,0.0339
821.00,0.0328
820.00,0.0318
819.00,0.0309
818.00,0.0299
817.00,0.0290
816.00,0.0281
815.00,0.0273
814.00,0.0265
813.00,0.0256
812.00,0.0246
811.00,0.0236
810.00,0.0226
809.00,0.0216
808.00,0.0205
807.00,0.0193
806.00,0.0181
805.00,0.0169
804.00,0.0157
803.00,0.0146
802.00,0.0135
801.00,0.0125
800.00,0.0116
799.00,0.0108
798.00,0.0101
797.00,0.0095
796.00,0.0091
795.00,0.0088
794.00,0.0086
793.00,0.0086
792.00,0.0086
791.00,0.0086
790.00,0.0086
789.00,0.0089
788.00,0.0092
787.00,0.0096
786.00,0.0099
785.00,0.0102
784.00,0.0106
783.00,0.0110
782.00,0.0115
781.00,0.0120
780.00,0.0126
779.00,0.0131
778.00,0.0137
777.00,0.0141
776.00,0.0146
775.00,0.0150
774.00,0.0153
773.00,0.0155
772.00,0.0157
771.00,0.0157
770.00,0.0155
769.00,0.0153
768.00,0.0151
767.00,0.0148
766.00,0.0144
765.00,0.0141
764.00,0.0138
763.00,0.0134
762.00,0.0130
761.00,0.0126
760.00,0.0123
759.00,0.0121
758.00,0.0121
757.00,0.0121
756.00,0.0123
755.00,0.0126
754.00,0.0128
753.00,0.0131
752.00,0.0135
751.00,0.0138
750.00,0.0142
749.00,0.0146
748.00,0.0150
747.00,0.0153
746.00,0.0156
745.00,0.0157
744.00,0.0159
743.00,0.0159
742.00,0.0159
741.00,0.0159
740.00,0.0159
739.00,0.0159
738.00,0.0161
737.00,0.0162
736.00,0.0163
735.00,0.0164
734.00,0.0165
733.00,0.0166
732.00,0.0168
731.00,0.0171
730.00,0.0173
729.00,0.0177
728.00,0.0181
727.00,0.0184
726.00,0.0185
725.00,0.0186
724.00,0.0187
723.00,0.0187
722.00,0.0187
721.00,0.0185
720.00,0.0184
719.00,0.0182
718.00,0.0180
717.00,0.0177
716.00,0.0174
715.00,0.0172
714.00,0.0169
713.00,0.0166
712.00,0.0163
711.00,0.0160
710.00,0.0158
709.00,0.0157
708.00,0.0159
707.00,0.0160
706.00,0.0163
705.00,0.0167
704.00,0.0171
703.00,0.0175
702.00,0.0179
701.00,0.0182
700.00,0.0184
699.00,0.0186
698.00,0.0187
697.00,0.0188
696.00,0.0187
695.00,0.0185
694.00,0.0180
693.00,0.0174
692.00,0.0168
691.00,0.0162
690.00,0.0156
689.00,0.0150
688.00,0.0145
687.00,0.0140
686.00,0.0134
685.00,0.0127
684.00,0.0121
683.00,0.0116
682.00,0.0111
681.00,0.0107
680.00,0.0104
679.00,0.0103
678.00,0.0103
677.00,0.0104
676.00,0.0105
675.00,0.0106
674.00,0.0106
673.00,0.0107
672.00,0.0107
671.00,0.0106
670.00,0.0104
669.00,0.0104
668.00,0.0110
667.00,0.0118
666.00,0.0120
665.00,0.0118
664.00,0.0116
663.00,0.0116
662.00,0.0118
661.00,0.0123
660.00,0.0131
659.00,0.0139
658.00,0.0146
657.00,0.0149
656.00,0.0148
655.00,0.0143
654.00,0.0133
653.00,0.0123
652.00,0.0115
651.00,0.0109
650.00,0.0103
649.00,0.0099
648.00,0.0096
647.00,0.0097
646.00,0.0099
645.00,0.0102
644.00,0.0105
643.00,0.0104
642.00,0.0101
641.00,0.0095
640.00,0.0091
639.00,0.0087
638.00,0.0085
637.00,0.0087
636.00,0.0092
635.00,0.0101
634.00,0.0111
633.00,0.0124
632.00,0.0141
631.00,0.0159
630.00,0.0179
629.00,0.0201
628.00,0.0224
627.00,0.0247
626.00,0.0271
625.00,0.0296
624.00,0.0322
623.00,0.0346
622.00,0.0368
621.00,0.0391
620.00,0.0416
619.00,0.0440
618.00,0.0462
617.00,0.0481
616.00,0.0497
615.00,0.0507
614.00,0.0513
613.00,0.0515
612.00,0.0517
611.00,0.0516
610.00,0.0514
609.00,0.0510
608.00,0.0507
607.00,0.0504
606.00,0.0499
605.00,0.0497
604.00,0.0500
603.00,0.0505
602.00,0.0510
601.00,0.0515
600.00,0.0523
599.00,0.0531
598.00,0.0537
597.00,0.0542
596.00,0.0545
595.00,0.0546
594.00,0.0546
593.00,0.0550
592.00,0.0559
591.00,0.0571
590.00,0.0582
589.00,0.0593
588.00,0.0606
587.00,0.0620
586.00,0.0635
585.00,0.0653
584.00,0.0673
583.00,0.0691
582.00,0.0701
581.00,0.0708
580.00,0.0713
579.00,0.0716
578.00,0.0714
577.00,0.0709
576.00,0.0704
575.00,0.0696
574.00,0.0686
573.00,0.0675
572.00,0.0663
571.00,0.0646
570.00,0.0625
569.00,0.0605
568.00,0.0588
567.00,0.0575
566.00,0.0562
565.00,0.0551
564.00,0.0542
563.00,0.0530
562.00,0.0514
561.00,0.0498
560.00,0.0488
559.00,0.0482
558.00,0.0473
557.00,0.0460
556.00,0.0448
555.00,0.0437
554.00,0.0428
553.00,0.0423
552.00,0.0421
551.00,0.0419
550.00,0.0416
549.00,0.0412
548.00,0.0409
547.00,0.0405
546.00,0.0399
545.00,0.0393
544.00,0.0391
543.00,0.0389
542.00,0.0385
541.00,0.0381
540.00,0.0379
539.00,0.0376
538.00,0.0372
537.00,0.0367
536.00,0.0364
535.00,0.0362
534.00,0.0358
533.00,0.0353
532.00,0.0347
531.00,0.0342
530.00,0.0335
529.00,0.0329
528.00,0.0325
527.00,0.0323
526.00,0.0320
525.00,0.0319
524.00,0.0320
523.00,0.0323
522.00,0.0322
521.00,0.0319
520.00,0.0316
519.00,0.0311
518.00,0.0305
517.00,0.0300
516.00,0.0296
515.00,0.0289
514.00,0.0275
513.00,0.0261
512.00,0.0250
511.00,0.0242
510.00,0.0234
509.00,0.0229
508.00,0.0227
507.00,0.0227
506.00,0.0226
505.00,0.0224
504.00,0.0222
503.00,0.0218
502.00,0.0211
501.00,0.0206
500.00,0.0204
499.00,0.0202
498.00,0.0198
497.00,0.0197
496.00,0.0201
495.00,0.0205
494.00,0.0202
493.00,0.0197
492.00,0.0194
491.00,0.0191
490.00,0.0187
489.00,0.0186
488.00,0.0189
487.00,0.0191
486.00,0.0186
485.00,0.0181
484.00,0.0181
483.00,0.0186
482.00,0.0189
481.00,0.0186
480.00,0.0179
479.00,0.0169
478.00,0.0155
477.00,0.0146
476.00,0.0144
475.00,0.0143
474.00,0.0138
473.00,0.0132
472.00,0.0133
471.00,0.0136
470.00,0.0134
469.00,0.0128
468.00,0.0123
467.00,0.0117
466.00,0.0108
465.00,0.0103
464.00,0.0107
463.00,0.0116
462.00,0.0119
461.00,0.0117
460.00,0.0113
459.00,0.0108
458.00,0.0100
457.00,0.0093
456.00,0.0091
455.00,0.0086
454.00,0.0075
453.00,0.0063
452.00,0.0055
451.00,0.0051
450.00,0.0047
