Created as New Dataset,Sample 010 By Administrator Date Monday, June 09 2025
cm-1,A
4000.00,0.0062
3999.00,0.0062
3998.00,0.0062
3997.00,0.0062
3996.00,0.0063
3995.00,0.0063
3994.00,0.0063
3993.00,0.0063
3992.00,0.0063
3991.00,0.0063
3990.00,0.0063
3989.00,0.0062
3988.00,0.0062
3987.00,0.0062
3986.00,0.0062
3985.00,0.0062
3984.00,0.0062
3983.00,0.0063
3982.00,0.0063
3981.00,0.0063
3980.00,0.0063
3979.00,0.0063
3978.00,0.0063
3977.00,0.0063
3976.00,0.0063
3975.00,0.0063
3974.00,0.0063
3973.00,0.0063
3972.00,0.0064
3971.00,0.0064
3970.00,0.0064
3969.00,0.0064
3968.00,0.0064
3967.00,0.0064
3966.00,0.0064
3965.00,0.0064
3964.00,0.0064
3963.00,0.0063
3962.00,0.0063
3961.00,0.0063
3960.00,0.0063
3959.00,0.0064
3958.00,0.0064
3957.00,0.0065
3956.00,0.0065
3955.00,0.0064
3954.00,0.0064
3953.00,0.0064
3952.00,0.0064
3951.00,0.0064
3950.00,0.0063
3949.00,0.0063
3948.00,0.0063
3947.00,0.0063
3946.00,0.0064
3945.00,0.0064
3944.00,0.0065
3943.00,0.0065
3942.00,0.0064
3941.00,0.0064
3940.00,0.0064
3939.00,0.0063
3938.00,0.0063
3937.00,0.0064
3936.00,0.0064
3935.00,0.0064
3934.00,0.0065
3933.00,0.0065
3932.00,0.0065
3931.00,0.0064
3930.00,0.0064
3929.00,0.0064
3928.00,0.0064
3927.00,0.0064
3926.00,0.0064
3925.00,0.0064
3924.00,0.0064
3923.00,0.0064
3922.00,0.0065
3921.00,0.0065
3920.00,0.0064
3919.00,0.0064
3918.00,0.0064
3917.00,0.0064
3916.00,0.0063
3915.00,0.0063
3914.00,0.0063
3913.00,0.0063
3912.00,0.0063
3911.00,0.0063
3910.00,0.0063
3909.00,0.0063
3908.00,0.0063
3907.00,0.0064
3906.00,0.0064
3905.00,0.0065
3904.00,0.0065
3903.00,0.0065
3902.00,0.0064
3901.00,0.0064
3900.00,0.0063
3899.00,0.0062
3898.00,0.0062
3897.00,0.0062
3896.00,0.0063
3895.00,0.0063
3894.00,0.0063
3893.00,0.0063
3892.00,0.0063
3891.00,0.0063
3890.00,0.0063
3889.00,0.0063
3888.00,0.0064
3887.00,0.0064
3886.00,0.0064
3885.00,0.0064
3884.00,0.0064
3883.00,0.0064
3882.00,0.0064
3881.00,0.0064
3880.00,0.0063
3879.00,0.0063
3878.00,0.0063
3877.00,0.0063
3876.00,0.0063
3875.00,0.0063
3874.00,0.0063
3873.00,0.0063
3872.00,0.0063
3871.00,0.0063
3870.00,0.0063
3869.00,0.0063
3868.00,0.0063
3867.00,0.0063
3866.00,0.0063
3865.00,0.0063
3864.00,0.0063
3863.00,0.0063
3862.00,0.0062
3861.00,0.0062
3860.00,0.0062
3859.00,0.0062
3858.00,0.0062
3857.00,0.0062
3856.00,0.0062
3855.00,0.0063
3854.00,0.0063
3853.00,0.0063
3852.00,0.0063
3851.00,0.0063
3850.00,0.0063
3849.00,0.0063
3848.00,0.0063
3847.00,0.0063
3846.00,0.0063
3845.00,0.0063
3844.00,0.0063
3843.00,0.0063
3842.00,0.0063
3841.00,0.0064
3840.00,0.0064
3839.00,0.0064
3838.00,0.0064
3837.00,0.0064
3836.00,0.0064
3835.00,0.0064
3834.00,0.0064
3833.00,0.0063
3832.00,0.0063
3831.00,0.0062
3830.00,0.0062
3829.00,0.0062
3828.00,0.0062
3827.00,0.0062
3826.00,0.0062
3825.00,0.0063
3824.00,0.0063
3823.00,0.0063
3822.00,0.0063
3821.00,0.0063
3820.00,0.0063
3819.00,0.0063
3818.00,0.0063
3817.00,0.0063
3816.00,0.0062
3815.00,0.0062
3814.00,0.0062
3813.00,0.0062
3812.00,0.0063
3811.00,0.0063
3810.00,0.0063
3809.00,0.0063
3808.00,0.0063
3807.00,0.0063
3806.00,0.0063
3805.00,0.0063
3804.00,0.0063
3803.00,0.0063
3802.00,0.0063
3801.00,0.0063
3800.00,0.0064
3799.00,0.0064
3798.00,0.0064
3797.00,0.0064
3796.00,0.0064
3795.00,0.0064
3794.00,0.0065
3793.00,0.0065
3792.00,0.0065
3791.00,0.0064
3790.00,0.0065
3789.00,0.0065
3788.00,0.0065
3787.00,0.0066
3786.00,0.0066
3785.00,0.0066
3784.00,0.0065
3783.00,0.0065
3782.00,0.0065
3781.00,0.0065
3780.00,0.0066
3779.00,0.0066
3778.00,0.0066
3777.00,0.0066
3776.00,0.0066
3775.00,0.0066
3774.00,0.0066
3773.00,0.0066
3772.00,0.0066
3771.00,0.0067
3770.00,0.0067
3769.00,0.0067
3768.00,0.0067
3767.00,0.0067
3766.00,0.0067
3765.00,0.0067
3764.00,0.0067
3763.00,0.0067
3762.00,0.0068
3761.00,0.0068
3760.00,0.0068
3759.00,0.0069
3758.00,0.0069
3757.00,0.0069
3756.00,0.0069
3755.00,0.0070
3754.00,0.0070
3753.00,0.0070
3752.00,0.0070
3751.00,0.0070
3750.00,0.0070
3749.00,0.0070
3748.00,0.0071
3747.00,0.0071
3746.00,0.0071
3745.00,0.0072
3744.00,0.0072
3743.00,0.0072
3742.00,0.0073
3741.00,0.0073
3740.00,0.0074
3739.00,0.0073
3738.00,0.0073
3737.00,0.0074
3736.00,0.0074
3735.00,0.0075
3734.00,0.0075
3733.00,0.0074
3732.00,0.0074
3731.00,0.0074
3730.00,0.0074
3729.00,0.0075
3728.00,0.0075
3727.00,0.0076
3726.00,0.0076
3725.00,0.0076
3724.00,0.0077
3723.00,0.0077
3722.00,0.0077
3721.00,0.0077
3720.00,0.0078
3719.00,0.0078
3718.00,0.0078
3717.00,0.0079
3716.00,0.0079
3715.00,0.0080
3714.00,0.0080
3713.00,0.0080
3712.00,0.0080
3711.00,0.0081
3710.00,0.0082
3709.00,0.0083
3708.00,0.0084
3707.00,0.0085
3706.00,0.0086
3705.00,0.0087
3704.00,0.0087
3703.00,0.0088
3702.00,0.0089
3701.00,0.0090
3700.00,0.0090
3699.00,0.0091
3698.00,0.0092
3697.00,0.0093
3696.00,0.0094
3695.00,0.0095
3694.00,0.0096
3693.00,0.0097
3692.00,0.0098
3691.00,0.0100
3690.00,0.0102
3689.00,0.0104
3688.00,0.0106
3687.00,0.0109
3686.00,0.0111
3685.00,0.0112
3684.00,0.0113
3683.00,0.0115
3682.00,0.0116
3681.00,0.0118
3680.00,0.0120
3679.00,0.0122
3678.00,0.0124
3677.00,0.0127
3676.00,0.0130
3675.00,0.0133
3674.00,0.0137
3673.00,0.0140
3672.00,0.0143
3671.00,0.0146
3670.00,0.0150
3669.00,0.0153
3668.00,0.0157
3667.00,0.0160
3666.00,0.0163
3665.00,0.0166
3664.00,0.0169
3663.00,0.0172
3662.00,0.0176
3661.00,0.0180
3660.00,0.0184
3659.00,0.0188
3658.00,0.0193
3657.00,0.0198
3656.00,0.0203
3655.00,0.0209
3654.00,0.0213
3653.00,0.0217
3652.00,0.0221
3651.00,0.0226
3650.00,0.0233
3649.00,0.0241
3648.00,0.0250
3647.00,0.0258
3646.00,0.0264
3645.00,0.0270
3644.00,0.0274
3643.00,0.0279
3642.00,0.0284
3641.00,0.0289
3640.00,0.0295
3639.00,0.0300
3638.00,0.0306
3637.00,0.0312
3636.00,0.0318
3635.00,0.0324
3634.00,0.0331
3633.00,0.0336
3632.00,0.0341
3631.00,0.0347
3630.00,0.0354
3629.00,0.0365
3628.00,0.0377
3627.00,0.0388
3626.00,0.0396
3625.00,0.0402
3624.00,0.0407
3623.00,0.0412
3622.00,0.0416
3621.00,0.0422
3620.00,0.0430
3619.00,0.0439
3618.00,0.0449
3617.00,0.0457
3616.00,0.0464
3615.00,0.0471
3614.00,0.0478
3613.00,0.0485
3612.00,0.0492
3611.00,0.0499
3610.00,0.0507
3609.00,0.0515
3608.00,0.0524
3607.00,0.0533
3606.00,0.0541
3605.00,0.0548
3604.00,0.0554
3603.00,0.0560
3602.00,0.0567
3601.00,0.0573
3600.00,0.0580
3599.00,0.0588
3598.00,0.0595
3597.00,0.0603
3596.00,0.0611
3595.00,0.0620
3594.00,0.0628
3593.00,0.0636
3592.00,0.0643
3591.00,0.0648
3590.00,0.0653
3589.00,0.0659
3588.00,0.0668
3587.00,0.0679
3586.00,0.0689
3585.00,0.0699
3584.00,0.0707
3583.00,0.0713
3582.00,0.0719
3581.00,0.0725
3580.00,0.0732
3579.00,0.0739
3578.00,0.0746
3577.00,0.0753
3576.00,0.0761
3575.00,0.0769
3574.00,0.0776
3573.00,0.0784
3572.00,0.0790
3571.00,0.0795
3570.00,0.0800
3569.00,0.0806
3568.00,0.0815
3567.00,0.0826
3566.00,0.0838
3565.00,0.0849
3564.00,0.0858
3563.00,0.0866
3562.00,0.0872
3561.00,0.0877
3560.00,0.0884
3559.00,0.0890
3558.00,0.0897
3557.00,0.0904
3556.00,0.0910
3555.00,0.0916
3554.00,0.0923
3553.00,0.0930
3552.00,0.0938
3551.00,0.0947
3550.00,0.0954
3549.00,0.0962
3548.00,0.0969
3547.00,0.0976
3546.00,0.0985
3545.00,0.0995
3544.00,0.1004
3543.00,0.1011
3542.00,0.1017
3541.00,0.1023
3540.00,0.1029
3539.00,0.1035
3538.00,0.1041
3537.00,0.1048
3536.00,0.1055
3535.00,0.1062
3534.00,0.1069
3533.00,0.1076
3532.00,0.1082
3531.00,0.1088
3530.00,0.1095
3529.00,0.1102
3528.00,0.1110
3527.00,0.1118
3526.00,0.1126
3525.00,0.1134
3524.00,0.1141
3523.00,0.1148
3522.00,0.1155
3521.00,0.1161
3520.00,0.1168
3519.00,0.1174
3518.00,0.1181
3517.00,0.1188
3516.00,0.1194
3515.00,0.1201
3514.00,0.1207
3513.00,0.1212
3512.00,0.1218
3511.00,0.1224
3510.00,0.1231
3509.00,0.1239
3508.00,0.1246
3507.00,0.1253
3506.00,0.1260
3505.00,0.1266
3504.00,0.1273
3503.00,0.1281
3502.00,0.1288
3501.00,0.1296
3500.00,0.1303
3499.00,0.1310
3498.00,0.1316
3497.00,0.1322
3496.00,0.1328
3495.00,0.1334
3494.00,0.1340
3493.00,0.1347
3492.00,0.1353
3491.00,0.1360
3490.00,0.1367
3489.00,0.1375
3488.00,0.1381
3487.00,0.1388
3486.00,0.1394
3485.00,0.1400
3484.00,0.1406
3483.00,0.1413
3482.00,0.1421
3481.00,0.1429
3480.00,0.1436
3479.00,0.1442
3478.00,0.1447
3477.00,0.1453
3476.00,0.1458
3475.00,0.1465
3474.00,0.1471
3473.00,0.1479
3472.00,0.1486
3471.00,0.1493
3470.00,0.1500
3469.00,0.1507
3468.00,0.1513
3467.00,0.1519
3466.00,0.1525
3465.00,0.1530
3464.00,0.1536
3463.00,0.1542
3462.00,0.1549
3461.00,0.1556
3460.00,0.1562
3459.00,0.1569
3458.00,0.1574
3457.00,0.1580
3456.00,0.1586
3455.00,0.1592
3454.00,0.1598
3453.00,0.1604
3452.00,0.1609
3451.00,0.1615
3450.00,0.1620
3449.00,0.1625
3448.00,0.1631
3447.00,0.1638
3446.00,0.1645
3445.00,0.1652
3444.00,0.1659
3443.00,0.1665
3442.00,0.1671
3441.00,0.1677
3440.00,0.1683
3439.00,0.1689
3438.00,0.1696
3437.00,0.1702
3436.00,0.1708
3435.00,0.1713
3434.00,0.1718
3433.00,0.1724
3432.00,0.1729
3431.00,0.1734
3430.00,0.1740
3429.00,0.1745
3428.00,0.1750
3427.00,0.1756
3426.00,0.1761
3425.00,0.1766
3424.00,0.1771
3423.00,0.1776
3422.00,0.1781
3421.00,0.1787
3420.00,0.1792
3419.00,0.1798
3418.00,0.1803
3417.00,0.1808
3416.00,0.1814
3415.00,0.1819
3414.00,0.1824
3413.00,0.1829
3412.00,0.1834
3411.00,0.1838
3410.00,0.1842
3409.00,0.1846
3408.00,0.1850
3407.00,0.1853
3406.00,0.1857
3405.00,0.1862
3404.00,0.1867
3403.00,0.1873
3402.00,0.1878
3401.00,0.1882
3400.00,0.1885
3399.00,0.1888
3398.00,0.1890
3397.00,0.1894
3396.00,0.1898
3395.00,0.1901
3394.00,0.1905
3393.00,0.1909
3392.00,0.1911
3391.00,0.1913
3390.00,0.1915
3389.00,0.1917
3388.00,0.1918
3387.00,0.1920
3386.00,0.1922
3385.00,0.1925
3384.00,0.1927
3383.00,0.1930
3382.00,0.1932
3381.00,0.1935
3380.00,0.1937
3379.00,0.1938
3378.00,0.1940
3377.00,0.1941
3376.00,0.1942
3375.00,0.1944
3374.00,0.1945
3373.00,0.1947
3372.00,0.1949
3371.00,0.1951
3370.00,0.1953
3369.00,0.1954
3368.00,0.1954
3367.00,0.1954
3366.00,0.1954
3365.00,0.1955
3364.00,0.1955
3363.00,0.1956
3362.00,0.1956
3361.00,0.1956
3360.00,0.1956
3359.00,0.1956
3358.00,0.1957
3357.00,0.1957
3356.00,0.1958
3355.00,0.1958
3354.00,0.1958
3353.00,0.1958
3352.00,0.1958
3351.00,0.1959
3350.00,0.1958
3349.00,0.1958
3348.00,0.1957
3347.00,0.1957
3346.00,0.1956
3345.00,0.1956
3344.00,0.1956
3343.00,0.1956
3342.00,0.1954
3341.00,0.1953
3340.00,0.1952
3339.00,0.1951
3338.00,0.1951
3337.00,0.1950
3336.00,0.1950
3335.00,0.1950
3334.00,0.1949
3333.00,0.1949
3332.00,0.1947
3331.00,0.1946
3330.00,0.1945
3329.00,0.1943
3328.00,0.1943
3327.00,0.1942
3326.00,0.1941
3325.00,0.1941
3324.00,0.1940
3323.00,0.1939
3322.00,0.1938
3321.00,0.1937
3320.00,0.1936
3319.00,0.1935
3318.00,0.1934
3317.00,0.1933
3316.00,0.1931
3315.00,0.1930
3314.00,0.1929
3313.00,0.1927
3312.00,0.1926
3311.00,0.1925
3310.00,0.1924
3309.00,0.1923
3308.00,0.1923
3307.00,0.1922
3306.00,0.1920
3305.00,0.1919
3304.00,0.1917
3303.00,0.1915
3302.00,0.1913
3301.00,0.1911
3300.00,0.1910
3299.00,0.1908
3298.00,0.1905
3297.00,0.1903
3296.00,0.1901
3295.00,0.1899
3294.00,0.1897
3293.00,0.1895
3292.00,0.1893
3291.00,0.1891
3290.00,0.1889
3289.00,0.1888
3288.00,0.1885
3287.00,0.1883
3286.00,0.1880
3285.00,0.1878
3284.00,0.1876
3283.00,0.1873
3282.00,0.1871
3281.00,0.1868
3280.00,0.1865
3279.00,0.1861
3278.00,0.1858
3277.00,0.1854
3276.00,0.1851
3275.00,0.1848
3274.00,0.1845
3273.00,0.1842
3272.00,0.1838
3271.00,0.1835
3270.00,0.1831
3269.00,0.1828
3268.00,0.1824
3267.00,0.1820
3266.00,0.1816
3265.00,0.1812
3264.00,0.1808
3263.00,0.1804
3262.00,0.1800
3261.00,0.1796
3260.00,0.1791
3259.00,0.1787
3258.00,0.1782
3257.00,0.1778
3256.00,0.1773
3255.00,0.1769
3254.00,0.1764
3253.00,0.1760
3252.00,0.1755
3251.00,0.1751
3250.00,0.1746
3249.00,0.1741
3248.00,0.1736
3247.00,0.1731
3246.00,0.1725
3245.00,0.1721
3244.00,0.1716
3243.00,0.1711
3242.00,0.1706
3241.00,0.1700
3240.00,0.1695
3239.00,0.1690
3238.00,0.1684
3237.00,0.1680
3236.00,0.1675
3235.00,0.1670
3234.00,0.1664
3233.00,0.1659
3232.00,0.1653
3231.00,0.1647
3230.00,0.1642
3229.00,0.1636
3228.00,0.1631
3227.00,0.1625
3226.00,0.1620
3225.00,0.1614
3224.00,0.1608
3223.00,0.1601
3222.00,0.1595
3221.00,0.1589
3220.00,0.1583
3219.00,0.1578
3218.00,0.1572
3217.00,0.1567
3216.00,0.1561
3215.00,0.1555
3214.00,0.1549
3213.00,0.1543
3212.00,0.1537
3211.00,0.1531
3210.00,0.1524
3209.00,0.1518
3208.00,0.1511
3207.00,0.1504
3206.00,0.1497
3205.00,0.1491
3204.00,0.1484
3203.00,0.1477
3202.00,0.1470
3201.00,0.1463
3200.00,0.1456
3199.00,0.1450
3198.00,0.1443
3197.00,0.1437
3196.00,0.1430
3195.00,0.1424
3194.00,0.1416
3193.00,0.1409
3192.00,0.1401
3191.00,0.1394
3190.00,0.1387
3189.00,0.1380
3188.00,0.1373
3187.00,0.1366
3186.00,0.1358
3185.00,0.1351
3184.00,0.1344
3183.00,0.1337
3182.00,0.1330
3181.00,0.1323
3180.00,0.1316
3179.00,0.1308
3178.00,0.1301
3177.00,0.1294
3176.00,0.1286
3175.00,0.1279
3174.00,0.1271
3173.00,0.1263
3172.00,0.1255
3171.00,0.1248
3170.00,0.1241
3169.00,0.1234
3168.00,0.1227
3167.00,0.1220
3166.00,0.1213
3165.00,0.1206
3164.00,0.1198
3163.00,0.1191
3162.00,0.1184
3161.00,0.1177
3160.00,0.1170
3159.00,0.1163
3158.00,0.1155
3157.00,0.1148
3156.00,0.1141
3155.00,0.1134
3154.00,0.1127
3153.00,0.1120
3152.00,0.1113
3151.00,0.1105
3150.00,0.1099
3149.00,0.1092
3148.00,0.1085
3147.00,0.1078
3146.00,0.1071
3145.00,0.1065
3144.00,0.1058
3143.00,0.1051
3142.00,0.1045
3141.00,0.1038
3140.00,0.1032
3139.00,0.1025
3138.00,0.1018
3137.00,0.1012
3136.00,0.1005
3135.00,0.0999
3134.00,0.0992
3133.00,0.0986
3132.00,0.0980
3131.00,0.0974
3130.00,0.0967
3129.00,0.0960
3128.00,0.0954
3127.00,0.0948
3126.00,0.0942
3125.00,0.0937
3124.00,0.0931
3123.00,0.0926
3122.00,0.0920
3121.00,0.0915
3120.00,0.0910
3119.00,0.0904
3118.00,0.0899
3117.00,0.0893
3116.00,0.0887
3115.00,0.0881
3114.00,0.0876
3113.00,0.0871
3112.00,0.0866
3111.00,0.0861
3110.00,0.0856
3109.00,0.0852
3108.00,0.0847
3107.00,0.0842
3106.00,0.0837
3105.00,0.0832
3104.00,0.0827
3103.00,0.0823
3102.00,0.0818
3101.00,0.0814
3100.00,0.0810
3099.00,0.0805
3098.00,0.0801
3097.00,0.0796
3096.00,0.0792
3095.00,0.0788
3094.00,0.0784
3093.00,0.0780
3092.00,0.0776
3091.00,0.0771
3090.00,0.0767
3089.00,0.0763
3088.00,0.0759
3087.00,0.0755
3086.00,0.0751
3085.00,0.0747
3084.00,0.0743
3083.00,0.0739
3082.00,0.0735
3081.00,0.0731
3080.00,0.0727
3079.00,0.0723
3078.00,0.0720
3077.00,0.0716
3076.00,0.0713
3075.00,0.0709
3074.00,0.0705
3073.00,0.0701
3072.00,0.0697
3071.00,0.0693
3070.00,0.0689
3069.00,0.0685
3068.00,0.0681
3067.00,0.0677
3066.00,0.0673
3065.00,0.0670
3064.00,0.0666
3063.00,0.0662
3062.00,0.0658
3061.00,0.0654
3060.00,0.0650
3059.00,0.0646
3058.00,0.0642
3057.00,0.0639
3056.00,0.0635
3055.00,0.0631
3054.00,0.0627
3053.00,0.0623
3052.00,0.0619
3051.00,0.0615
3050.00,0.0611
3049.00,0.0607
3048.00,0.0603
3047.00,0.0599
3046.00,0.0595
3045.00,0.0591
3044.00,0.0587
3043.00,0.0583
3042.00,0.0580
3041.00,0.0576
3040.00,0.0572
3039.00,0.0569
3038.00,0.0566
3037.00,0.0563
3036.00,0.0559
3035.00,0.0556
3034.00,0.0552
3033.00,0.0549
3032.00,0.0545
3031.00,0.0542
3030.00,0.0539
3029.00,0.0536
3028.00,0.0533
3027.00,0.0530
3026.00,0.0526
3025.00,0.0523
3024.00,0.0520
3023.00,0.0517
3022.00,0.0514
3021.00,0.0511
3020.00,0.0509
3019.00,0.0506
3018.00,0.0504
3017.00,0.0501
3016.00,0.0498
3015.00,0.0495
3014.00,0.0493
3013.00,0.0490
3012.00,0.0488
3011.00,0.0486
3010.00,0.0484
3009.00,0.0482
3008.00,0.0480
3007.00,0.0478
3006.00,0.0476
3005.00,0.0475
3004.00,0.0473
3003.00,0.0471
3002.00,0.0470
3001.00,0.0468
3000.00,0.0467
2999.00,0.0466
2998.00,0.0465
2997.00,0.0465
2996.00,0.0465
2995.00,0.0464
2994.00,0.0464
2993.00,0.0463
2992.00,0.0463
2991.00,0.0463
2990.00,0.0463
2989.00,0.0463
2988.00,0.0464
2987.00,0.0464
2986.00,0.0465
2985.00,0.0465
2984.00,0.0466
2983.00,0.0467
2982.00,0.0468
2981.00,0.0470
2980.00,0.0471
2979.00,0.0472
2978.00,0.0474
2977.00,0.0475
2976.00,0.0476
2975.00,0.0478
2974.00,0.0480
2973.00,0.0482
2972.00,0.0484
2971.00,0.0485
2970.00,0.0487
2969.00,0.0489
2968.00,0.0490
2967.00,0.0492
2966.00,0.0493
2965.00,0.0493
2964.00,0.0494
2963.00,0.0494
2962.00,0.0495
2961.00,0.0495
2960.00,0.0495
2959.00,0.0495
2958.00,0.0495
2957.00,0.0493
2956.00,0.0492
2955.00,0.0491
2954.00,0.0489
2953.00,0.0488
2952.00,0.0487
2951.00,0.0486
2950.00,0.0484
2949.00,0.0483
2948.00,0.0482
2947.00,0.0481
2946.00,0.0481
2945.00,0.0480
2944.00,0.0480
2943.00,0.0480
2942.00,0.0481
2941.00,0.0481
2940.00,0.0482
2939.00,0.0482
2938.00,0.0482
2937.00,0.0483
2936.00,0.0483
2935.00,0.0484
2934.00,0.0484
2933.00,0.0484
2932.00,0.0484
2931.00,0.0483
2930.00,0.0482
2929.00,0.0482
2928.00,0.0482
2927.00,0.0482
2926.00,0.0482
2925.00,0.0481
2924.00,0.0480
2923.00,0.0479
2922.00,0.0477
2921.00,0.0475
2920.00,0.0472
2919.00,0.0469
2918.00,0.0466
2917.00,0.0463
2916.00,0.0459
2915.00,0.0455
2914.00,0.0451
2913.00,0.0448
2912.00,0.0444
2911.00,0.0441
2910.00,0.0437
2909.00,0.0434
2908.00,0.0431
2907.00,0.0428
2906.00,0.0425
2905.00,0.0423
2904.00,0.0421
2903.00,0.0418
2902.00,0.0415
2901.00,0.0413
2900.00,0.0410
2899.00,0.0406
2898.00,0.0403
2897.00,0.0401
2896.00,0.0398
2895.00,0.0395
2894.00,0.0393
2893.00,0.0390
2892.00,0.0388
2891.00,0.0386
2890.00,0.0384
2889.00,0.0381
2888.00,0.0379
2887.00,0.0377
2886.00,0.0375
2885.00,0.0373
2884.00,0.0371
2883.00,0.0369
2882.00,0.0367
2881.00,0.0366
2880.00,0.0364
2879.00,0.0363
2878.00,0.0361
2877.00,0.0359
2876.00,0.0357
2875.00,0.0355
2874.00,0.0353
2873.00,0.0351
2872.00,0.0349
2871.00,0.0346
2870.00,0.0344
2869.00,0.0341
2868.00,0.0338
2867.00,0.0335
2866.00,0.0333
2865.00,0.0331
2864.00,0.0328
2863.00,0.0327
2862.00,0.0325
2861.00,0.0323
2860.00,0.0323
2859.00,0.0322
2858.00,0.0321
2857.00,0.0320
2856.00,0.0320
2855.00,0.0319
2854.00,0.0318
2853.00,0.0317
2852.00,0.0315
2851.00,0.0313
2850.00,0.0310
2849.00,0.0306
2848.00,0.0302
2847.00,0.0297
2846.00,0.0293
2845.00,0.0289
2844.00,0.0285
2843.00,0.0281
2842.00,0.0278
2841.00,0.0275
2840.00,0.0272
2839.00,0.0269
2838.00,0.0267
2837.00,0.0265
2836.00,0.0263
2835.00,0.0262
2834.00,0.0260
2833.00,0.0258
2832.00,0.0257
2831.00,0.0255
2830.00,0.0253
2829.00,0.0252
2828.00,0.0250
2827.00,0.0249
2826.00,0.0247
2825.00,0.0246
2824.00,0.0245
2823.00,0.0243
2822.00,0.0242
2821.00,0.0241
2820.00,0.0239
2819.00,0.0238
2818.00,0.0237
2817.00,0.0236
2816.00,0.0235
2815.00,0.0234
2814.00,0.0233
2813.00,0.0231
2812.00,0.0230
2811.00,0.0229
2810.00,0.0228
2809.00,0.0227
2808.00,0.0226
2807.00,0.0224
2806.00,0.0223
2805.00,0.0222
2804.00,0.0221
2803.00,0.0220
2802.00,0.0220
2801.00,0.0219
2800.00,0.0218
2799.00,0.0217
2798.00,0.0216
2797.00,0.0215
2796.00,0.0214
2795.00,0.0213
2794.00,0.0212
2793.00,0.0211
2792.00,0.0209
2791.00,0.0208
2790.00,0.0207
2789.00,0.0206
2788.00,0.0206
2787.00,0.0205
2786.00,0.0205
2785.00,0.0204
2784.00,0.0204
2783.00,0.0203
2782.00,0.0202
2781.00,0.0200
2780.00,0.0199
2779.00,0.0199
2778.00,0.0198
2777.00,0.0198
2776.00,0.0197
2775.00,0.0196
2774.00,0.0195
2773.00,0.0194
2772.00,0.0193
2771.00,0.0193
2770.00,0.0192
2769.00,0.0191
2768.00,0.0191
2767.00,0.0190
2766.00,0.0190
2765.00,0.0189
2764.00,0.0188
2763.00,0.0187
2762.00,0.0187
2761.00,0.0186
2760.00,0.0185
2759.00,0.0185
2758.00,0.0184
2757.00,0.0184
2756.00,0.0183
2755.00,0.0183
2754.00,0.0182
2753.00,0.0182
2752.00,0.0181
2751.00,0.0180
2750.00,0.0179
2749.00,0.0179
2748.00,0.0179
2747.00,0.0178
2746.00,0.0178
2745.00,0.0177
2744.00,0.0177
2743.00,0.0176
2742.00,0.0176
2741.00,0.0175
2740.00,0.0175
2739.00,0.0175
2738.00,0.0174
2737.00,0.0174
2736.00,0.0173
2735.00,0.0172
2734.00,0.0172
2733.00,0.0171
2732.00,0.0170
2731.00,0.0170
2730.00,0.0169
2729.00,0.0168
2728.00,0.0168
2727.00,0.0167
2726.00,0.0167
2725.00,0.0166
2724.00,0.0166
2723.00,0.0166
2722.00,0.0165
2721.00,0.0165
2720.00,0.0164
2719.00,0.0163
2718.00,0.0163
2717.00,0.0162
2716.00,0.0162
2715.00,0.0162
2714.00,0.0162
2713.00,0.0161
2712.00,0.0160
2711.00,0.0160
2710.00,0.0159
2709.00,0.0159
2708.00,0.0159
2707.00,0.0158
2706.00,0.0158
2705.00,0.0157
2704.00,0.0157
2703.00,0.0157
2702.00,0.0157
2701.00,0.0156
2700.00,0.0156
2699.00,0.0155
2698.00,0.0154
2697.00,0.0154
2696.00,0.0154
2695.00,0.0153
2694.00,0.0153
2693.00,0.0153
2692.00,0.0152
2691.00,0.0152
2690.00,0.0151
2689.00,0.0151
2688.00,0.0151
2687.00,0.0151
2686.00,0.0151
2685.00,0.0151
2684.00,0.0151
2683.00,0.0150
2682.00,0.0150
2681.00,0.0149
2680.00,0.0149
2679.00,0.0148
2678.00,0.0147
2677.00,0.0147
2676.00,0.0146
2675.00,0.0146
2674.00,0.0146
2673.00,0.0146
2672.00,0.0146
2671.00,0.0145
2670.00,0.0145
2669.00,0.0144
2668.00,0.0144
2667.00,0.0144
2666.00,0.0144
2665.00,0.0145
2664.00,0.0145
2663.00,0.0146
2662.00,0.0146
2661.00,0.0146
2660.00,0.0146
2659.00,0.0145
2658.00,0.0145
2657.00,0.0145
2656.00,0.0145
2655.00,0.0145
2654.00,0.0144
2653.00,0.0144
2652.00,0.0144
2651.00,0.0143
2650.00,0.0143
2649.00,0.0143
2648.00,0.0142
2647.00,0.0142
2646.00,0.0142
2645.00,0.0141
2644.00,0.0141
2643.00,0.0140
2642.00,0.0140
2641.00,0.0139
2640.00,0.0138
2639.00,0.0138
2638.00,0.0137
2637.00,0.0137
2636.00,0.0136
2635.00,0.0135
2634.00,0.0135
2633.00,0.0134
2632.00,0.0134
2631.00,0.0134
2630.00,0.0133
2629.00,0.0133
2628.00,0.0132
2627.00,0.0132
2626.00,0.0131
2625.00,0.0130
2624.00,0.0129
2623.00,0.0129
2622.00,0.0129
2621.00,0.0128
2620.00,0.0128
2619.00,0.0128
2618.00,0.0127
2617.00,0.0127
2616.00,0.0127
2615.00,0.0127
2614.00,0.0126
2613.00,0.0126
2612.00,0.0125
2611.00,0.0124
2610.00,0.0124
2609.00,0.0123
2608.00,0.0123
2607.00,0.0122
2606.00,0.0122
2605.00,0.0122
2604.00,0.0121
2603.00,0.0121
2602.00,0.0120
2601.00,0.0120
2600.00,0.0119
2599.00,0.0119
2598.00,0.0120
2597.00,0.0120
2596.00,0.0120
2595.00,0.0119
2594.00,0.0118
2593.00,0.0117
2592.00,0.0116
2591.00,0.0116
2590.00,0.0116
2589.00,0.0116
2588.00,0.0116
2587.00,0.0116
2586.00,0.0116
2585.00,0.0116
2584.00,0.0116
2583.00,0.0115
2582.00,0.0115
2581.00,0.0115
2580.00,0.0114
2579.00,0.0114
2578.00,0.0113
2577.00,0.0113
2576.00,0.0112
2575.00,0.0112
2574.00,0.0111
2573.00,0.0111
2572.00,0.0112
2571.00,0.0112
2570.00,0.0111
2569.00,0.0111
2568.00,0.0110
2567.00,0.0110
2566.00,0.0109
2565.00,0.0109
2564.00,0.0109
2563.00,0.0109
2562.00,0.0110
2561.00,0.0110
2560.00,0.0110
2559.00,0.0109
2558.00,0.0109
2557.00,0.0108
2556.00,0.0108
2555.00,0.0107
2554.00,0.0107
2553.00,0.0107
2552.00,0.0107
2551.00,0.0107
2550.00,0.0107
2549.00,0.0107
2548.00,0.0107
2547.00,0.0107
2546.00,0.0107
2545.00,0.0106
2544.00,0.0106
2543.00,0.0106
2542.00,0.0105
2541.00,0.0105
2540.00,0.0105
2539.00,0.0105
2538.00,0.0105
2537.00,0.0105
2536.00,0.0105
2535.00,0.0105
2534.00,0.0105
2533.00,0.0105
2532.00,0.0104
2531.00,0.0104
2530.00,0.0103
2529.00,0.0103
2528.00,0.0103
2527.00,0.0103
2526.00,0.0103
2525.00,0.0103
2524.00,0.0103
2523.00,0.0102
2522.00,0.0102
2521.00,0.0101
2520.00,0.0102
2519.00,0.0102
2518.00,0.0103
2517.00,0.0103
2516.00,0.0103
2515.00,0.0103
2514.00,0.0103
2513.00,0.0103
2512.00,0.0102
2511.00,0.0101
2510.00,0.0101
2509.00,0.0101
2508.00,0.0102
2507.00,0.0102
2506.00,0.0102
2505.00,0.0102
2504.00,0.0101
2503.00,0.0101
2502.00,0.0101
2501.00,0.0101
2500.00,0.0101
2499.00,0.0101
2498.00,0.0101
2497.00,0.0101
2496.00,0.0100
2495.00,0.0100
2494.00,0.0101
2493.00,0.0101
2492.00,0.0101
2491.00,0.0101
2490.00,0.0101
2489.00,0.0101
2488.00,0.0101
2487.00,0.0101
2486.00,0.0100
2485.00,0.0099
2484.00,0.0099
2483.00,0.0099
2482.00,0.0100
2481.00,0.0100
2480.00,0.0099
2479.00,0.0099
2478.00,0.0099
2477.00,0.0099
2476.00,0.0099
2475.00,0.0099
2474.00,0.0099
2473.00,0.0099
2472.00,0.0099
2471.00,0.0099
2470.00,0.0099
2469.00,0.0098
2468.00,0.0097
2467.00,0.0097
2466.00,0.0097
2465.00,0.0097
2464.00,0.0097
2463.00,0.0097
2462.00,0.0098
2461.00,0.0098
2460.00,0.0099
2459.00,0.0099
2458.00,0.0099
2457.00,0.0099
2456.00,0.0099
2455.00,0.0099
2454.00,0.0100
2453.00,0.0100
2452.00,0.0101
2451.00,0.0101
2450.00,0.0100
2449.00,0.0099
2448.00,0.0099
2447.00,0.0098
2446.00,0.0098
2445.00,0.0098
2444.00,0.0098
2443.00,0.0098
2442.00,0.0098
2441.00,0.0097
2440.00,0.0097
2439.00,0.0097
2438.00,0.0097
2437.00,0.0098
2436.00,0.0098
2435.00,0.0098
2434.00,0.0098
2433.00,0.0098
2432.00,0.0097
2431.00,0.0097
2430.00,0.0097
2429.00,0.0096
2428.00,0.0096
2427.00,0.0096
2426.00,0.0096
2425.00,0.0095
2424.00,0.0095
2423.00,0.0095
2422.00,0.0095
2421.00,0.0095
2420.00,0.0096
2419.00,0.0096
2418.00,0.0096
2417.00,0.0096
2416.00,0.0096
2415.00,0.0096
2414.00,0.0096
2413.00,0.0096
2412.00,0.0096
2411.00,0.0096
2410.00,0.0096
2409.00,0.0096
2408.00,0.0095
2407.00,0.0095
2406.00,0.0094
2405.00,0.0094
2404.00,0.0094
2403.00,0.0094
2402.00,0.0094
2401.00,0.0095
2400.00,0.0095
2399.00,0.0095
2398.00,0.0095
2397.00,0.0095
2396.00,0.0095
2395.00,0.0095
2394.00,0.0095
2393.00,0.0096
2392.00,0.0096
2391.00,0.0096
2390.00,0.0096
2389.00,0.0096
2388.00,0.0096
2387.00,0.0096
2386.00,0.0096
2385.00,0.0097
2384.00,0.0096
2383.00,0.0096
2382.00,0.0095
2381.00,0.0095
2380.00,0.0095
2379.00,0.0094
2378.00,0.0094
2377.00,0.0095
2376.00,0.0096
2375.00,0.0097
2374.00,0.0098
2373.00,0.0099
2372.00,0.0099
2371.00,0.0099
2370.00,0.0099
2369.00,0.0098
2368.00,0.0098
2367.00,0.0098
2366.00,0.0099
2365.00,0.0099
2364.00,0.0100
2363.00,0.0100
2362.00,0.0101
2361.00,0.0102
2360.00,0.0104
2359.00,0.0105
2358.00,0.0105
2357.00,0.0105
2356.00,0.0105
2355.00,0.0105
2354.00,0.0105
2353.00,0.0104
2352.00,0.0105
2351.00,0.0105
2350.00,0.0106
2349.00,0.0106
2348.00,0.0106
2347.00,0.0106
2346.00,0.0106
2345.00,0.0107
2344.00,0.0109
2343.00,0.0110
2342.00,0.0111
2341.00,0.0111
2340.00,0.0112
2339.00,0.0112
2338.00,0.0112
2337.00,0.0113
2336.00,0.0113
2335.00,0.0112
2334.00,0.0112
2333.00,0.0112
2332.00,0.0112
2331.00,0.0112
2330.00,0.0112
2329.00,0.0113
2328.00,0.0116
2327.00,0.0120
2326.00,0.0125
2325.00,0.0129
2324.00,0.0132
2323.00,0.0132
2322.00,0.0130
2321.00,0.0128
2320.00,0.0126
2319.00,0.0125
2318.00,0.0123
2317.00,0.0122
2316.00,0.0122
2315.00,0.0121
2314.00,0.0121
2313.00,0.0121
2312.00,0.0121
2311.00,0.0121
2310.00,0.0121
2309.00,0.0121
2308.00,0.0121
2307.00,0.0121
2306.00,0.0120
2305.00,0.0119
2304.00,0.0119
2303.00,0.0118
2302.00,0.0118
2301.00,0.0119
2300.00,0.0120
2299.00,0.0121
2298.00,0.0121
2297.00,0.0121
2296.00,0.0121
2295.00,0.0122
2294.00,0.0123
2293.00,0.0124
2292.00,0.0125
2291.00,0.0126
2290.00,0.0127
2289.00,0.0128
2288.00,0.0129
2287.00,0.0130
2286.00,0.0130
2285.00,0.0131
2284.00,0.0131
2283.00,0.0130
2282.00,0.0128
2281.00,0.0127
2280.00,0.0126
2279.00,0.0125
2278.00,0.0123
2277.00,0.0122
2276.00,0.0121
2275.00,0.0121
2274.00,0.0121
2273.00,0.0122
2272.00,0.0123
2271.00,0.0123
2270.00,0.0123
2269.00,0.0123
2268.00,0.0122
2267.00,0.0122
2266.00,0.0121
2265.00,0.0120
2264.00,0.0119
2263.00,0.0119
2262.00,0.0119
2261.00,0.0120
2260.00,0.0121
2259.00,0.0121
2258.00,0.0121
2257.00,0.0121
2256.00,0.0120
2255.00,0.0118
2254.00,0.0118
2253.00,0.0117
2252.00,0.0117
2251.00,0.0117
2250.00,0.0116
2249.00,0.0115
2248.00,0.0115
2247.00,0.0114
2246.00,0.0113
2245.00,0.0112
2244.00,0.0113
2243.00,0.0115
2242.00,0.0117
2241.00,0.0119
2240.00,0.0119
2239.00,0.0118
2238.00,0.0117
2237.00,0.0116
2236.00,0.0117
2235.00,0.0116
2234.00,0.0116
2233.00,0.0115
2232.00,0.0114
2231.00,0.0113
2230.00,0.0113
2229.00,0.0113
2228.00,0.0113
2227.00,0.0113
2226.00,0.0113
2225.00,0.0114
2224.00,0.0115
2223.00,0.0116
2222.00,0.0116
2221.00,0.0116
2220.00,0.0115
2219.00,0.0113
2218.00,0.0112
2217.00,0.0112
2216.00,0.0112
2215.00,0.0112
2214.00,0.0112
2213.00,0.0112
2212.00,0.0113
2211.00,0.0112
2210.00,0.0112
2209.00,0.0112
2208.00,0.0113
2207.00,0.0113
2206.00,0.0114
2205.00,0.0116
2204.00,0.0118
2203.00,0.0118
2202.00,0.0117
2201.00,0.0115
2200.00,0.0113
2199.00,0.0113
2198.00,0.0113
2197.00,0.0114
2196.00,0.0113
2195.00,0.0112
2194.00,0.0110
2193.00,0.0109
2192.00,0.0110
2191.00,0.0110
2190.00,0.0111
2189.00,0.0112
2188.00,0.0113
2187.00,0.0115
2186.00,0.0116
2185.00,0.0116
2184.00,0.0113
2183.00,0.0108
2182.00,0.0105
2181.00,0.0103
2180.00,0.0105
2179.00,0.0107
2178.00,0.0108
2177.00,0.0108
2176.00,0.0107
2175.00,0.0106
2174.00,0.0105
2173.00,0.0104
2172.00,0.0106
2171.00,0.0108
2170.00,0.0110
2169.00,0.0112
2168.00,0.0114
2167.00,0.0114
2166.00,0.0115
2165.00,0.0116
2164.00,0.0119
2163.00,0.0122
2162.00,0.0120
2161.00,0.0113
2160.00,0.0100
2159.00,0.0084
2158.00,0.0069
2157.00,0.0061
2156.00,0.0060
2155.00,0.0064
2154.00,0.0069
2153.00,0.0075
2152.00,0.0080
2151.00,0.0083
2150.00,0.0086
2149.00,0.0088
2148.00,0.0089
2147.00,0.0089
2146.00,0.0089
2145.00,0.0089
2144.00,0.0090
2143.00,0.0089
2142.00,0.0089
2141.00,0.0090
2140.00,0.0091
2139.00,0.0093
2138.00,0.0093
2137.00,0.0094
2136.00,0.0093
2135.00,0.0093
2134.00,0.0091
2133.00,0.0090
2132.00,0.0091
2131.00,0.0092
2130.00,0.0094
2129.00,0.0097
2128.00,0.0101
2127.00,0.0105
2126.00,0.0108
2125.00,0.0109
2124.00,0.0110
2123.00,0.0111
2122.00,0.0112
2121.00,0.0114
2120.00,0.0116
2119.00,0.0118
2118.00,0.0119
2117.00,0.0120
2116.00,0.0121
2115.00,0.0123
2114.00,0.0124
2113.00,0.0125
2112.00,0.0127
2111.00,0.0128
2110.00,0.0128
2109.00,0.0128
2108.00,0.0128
2107.00,0.0127
2106.00,0.0127
2105.00,0.0127
2104.00,0.0127
2103.00,0.0127
2102.00,0.0128
2101.00,0.0128
2100.00,0.0128
2099.00,0.0127
2098.00,0.0124
2097.00,0.0122
2096.00,0.0119
2095.00,0.0117
2094.00,0.0116
2093.00,0.0116
2092.00,0.0117
2091.00,0.0118
2090.00,0.0119
2089.00,0.0120
2088.00,0.0122
2087.00,0.0123
2086.00,0.0124
2085.00,0.0124
2084.00,0.0123
2083.00,0.0122
2082.00,0.0121
2081.00,0.0122
2080.00,0.0123
2079.00,0.0123
2078.00,0.0122
2077.00,0.0120
2076.00,0.0119
2075.00,0.0117
2074.00,0.0116
2073.00,0.0116
2072.00,0.0116
2071.00,0.0116
2070.00,0.0115
2069.00,0.0115
2068.00,0.0115
2067.00,0.0114
2066.00,0.0112
2065.00,0.0109
2064.00,0.0107
2063.00,0.0106
2062.00,0.0105
2061.00,0.0105
2060.00,0.0106
2059.00,0.0105
2058.00,0.0104
2057.00,0.0103
2056.00,0.0103
2055.00,0.0104
2054.00,0.0105
2053.00,0.0109
2052.00,0.0114
2051.00,0.0117
2050.00,0.0115
2049.00,0.0110
2048.00,0.0105
2047.00,0.0100
2046.00,0.0097
2045.00,0.0096
2044.00,0.0096
2043.00,0.0096
2042.00,0.0094
2041.00,0.0092
2040.00,0.0090
2039.00,0.0089
2038.00,0.0089
2037.00,0.0089
2036.00,0.0089
2035.00,0.0086
2034.00,0.0082
2033.00,0.0080
2032.00,0.0080
2031.00,0.0081
2030.00,0.0080
2029.00,0.0078
2028.00,0.0077
2027.00,0.0075
2026.00,0.0074
2025.00,0.0072
2024.00,0.0073
2023.00,0.0074
2022.00,0.0076
2021.00,0.0078
2020.00,0.0078
2019.00,0.0076
2018.00,0.0072
2017.00,0.0070
2016.00,0.0069
2015.00,0.0070
2014.00,0.0071
2013.00,0.0072
2012.00,0.0075
2011.00,0.0076
2010.00,0.0077
2009.00,0.0077
2008.00,0.0077
2007.00,0.0074
2006.00,0.0070
2005.00,0.0067
2004.00,0.0067
2003.00,0.0066
2002.00,0.0066
2001.00,0.0067
2000.00,0.0071
1999.00,0.0075
1998.00,0.0078
1997.00,0.0080
1996.00,0.0082
1995.00,0.0084
1994.00,0.0084
1993.00,0.0085
1992.00,0.0085
1991.00,0.0086
1990.00,0.0087
1989.00,0.0088
1988.00,0.0089
1987.00,0.0090
1986.00,0.0090
1985.00,0.0090
1984.00,0.0092
1983.00,0.0092
1982.00,0.0091
1981.00,0.0090
1980.00,0.0089
1979.00,0.0086
1978.00,0.0079
1977.00,0.0073
1976.00,0.0069
1975.00,0.0066
1974.00,0.0064
1973.00,0.0064
1972.00,0.0065
1971.00,0.0064
1970.00,0.0062
1969.00,0.0060
1968.00,0.0059
1967.00,0.0060
1966.00,0.0061
1965.00,0.0063
1964.00,0.0065
1963.00,0.0067
1962.00,0.0067
1961.00,0.0066
1960.00,0.0064
1959.00,0.0063
1958.00,0.0062
1957.00,0.0064
1956.00,0.0067
1955.00,0.0069
1954.00,0.0069
1953.00,0.0068
1952.00,0.0068
1951.00,0.0067
1950.00,0.0066
1949.00,0.0065
1948.00,0.0065
1947.00,0.0067
1946.00,0.0069
1945.00,0.0072
1944.00,0.0074
1943.00,0.0074
1942.00,0.0073
1941.00,0.0071
1940.00,0.0071
1939.00,0.0070
1938.00,0.0070
1937.00,0.0071
1936.00,0.0072
1935.00,0.0073
1934.00,0.0072
1933.00,0.0071
1932.00,0.0071
1931.00,0.0070
1930.00,0.0070
1929.00,0.0070
1928.00,0.0071
1927.00,0.0071
1926.00,0.0070
1925.00,0.0070
1924.00,0.0070
1923.00,0.0071
1922.00,0.0071
1921.00,0.0072
1920.00,0.0074
1919.00,0.0076
1918.00,0.0075
1917.00,0.0074
1916.00,0.0073
1915.00,0.0072
1914.00,0.0072
1913.00,0.0072
1912.00,0.0073
1911.00,0.0074
1910.00,0.0074
1909.00,0.0073
1908.00,0.0073
1907.00,0.0073
1906.00,0.0073
1905.00,0.0073
1904.00,0.0074
1903.00,0.0073
1902.00,0.0072
1901.00,0.0071
1900.00,0.0071
1899.00,0.0070
1898.00,0.0070
1897.00,0.0071
1896.00,0.0071
1895.00,0.0071
1894.00,0.0071
1893.00,0.0070
1892.00,0.0071
1891.00,0.0071
1890.00,0.0071
1889.00,0.0069
1888.00,0.0069
1887.00,0.0068
1886.00,0.0068
1885.00,0.0068
1884.00,0.0068
1883.00,0.0068
1882.00,0.0067
1881.00,0.0066
1880.00,0.0066
1879.00,0.0066
1878.00,0.0065
1877.00,0.0065
1876.00,0.0065
1875.00,0.0065
1874.00,0.0064
1873.00,0.0065
1872.00,0.0066
1871.00,0.0068
1870.00,0.0068
1869.00,0.0066
1868.00,0.0065
1867.00,0.0064
1866.00,0.0063
1865.00,0.0063
1864.00,0.0063
1863.00,0.0063
1862.00,0.0063
1861.00,0.0062
1860.00,0.0062
1859.00,0.0062
1858.00,0.0063
1857.00,0.0063
1856.00,0.0063
1855.00,0.0063
1854.00,0.0062
1853.00,0.0062
1852.00,0.0061
1851.00,0.0061
1850.00,0.0062
1849.00,0.0062
1848.00,0.0063
1847.00,0.0065
1846.00,0.0065
1845.00,0.0065
1844.00,0.0063
1843.00,0.0061
1842.00,0.0061
1841.00,0.0062
1840.00,0.0063
1839.00,0.0063
1838.00,0.0063
1837.00,0.0063
1836.00,0.0063
1835.00,0.0063
1834.00,0.0063
1833.00,0.0064
1832.00,0.0067
1831.00,0.0068
1830.00,0.0068
1829.00,0.0066
1828.00,0.0066
1827.00,0.0066
1826.00,0.0065
1825.00,0.0065
1824.00,0.0064
1823.00,0.0064
1822.00,0.0064
1821.00,0.0064
1820.00,0.0063
1819.00,0.0062
1818.00,0.0060
1817.00,0.0059
1816.00,0.0060
1815.00,0.0061
1814.00,0.0062
1813.00,0.0064
1812.00,0.0066
1811.00,0.0066
1810.00,0.0065
1809.00,0.0064
1808.00,0.0063
1807.00,0.0062
1806.00,0.0062
1805.00,0.0062
1804.00,0.0063
1803.00,0.0064
1802.00,0.0064
1801.00,0.0065
1800.00,0.0065
1799.00,0.0065
1798.00,0.0064
1797.00,0.0064
1796.00,0.0065
1795.00,0.0067
1794.00,0.0068
1793.00,0.0068
1792.00,0.0066
1791.00,0.0063
1790.00,0.0061
1789.00,0.0061
1788.00,0.0062
1787.00,0.0062
1786.00,0.0061
1785.00,0.0061
1784.00,0.0061
1783.00,0.0062
1782.00,0.0063
1781.00,0.0064
1780.00,0.0063
1779.00,0.0062
1778.00,0.0061
1777.00,0.0061
1776.00,0.0063
1775.00,0.0065
1774.00,0.0067
1773.00,0.0069
1772.00,0.0068
1771.00,0.0065
1770.00,0.0063
1769.00,0.0061
1768.00,0.0060
1767.00,0.0060
1766.00,0.0060
1765.00,0.0062
1764.00,0.0064
1763.00,0.0066
1762.00,0.0066
1761.00,0.0065
1760.00,0.0065
1759.00,0.0066
1758.00,0.0067
1757.00,0.0068
1756.00,0.0069
1755.00,0.0070
1754.00,0.0073
1753.00,0.0075
1752.00,0.0078
1751.00,0.0082
1750.00,0.0086
1749.00,0.0090
1748.00,0.0094
1747.00,0.0096
1746.00,0.0098
1745.00,0.0099
1744.00,0.0102
1743.00,0.0106
1742.00,0.0109
1741.00,0.0112
1740.00,0.0114
1739.00,0.0115
1738.00,0.0115
1737.00,0.0116
1736.00,0.0119
1735.00,0.0121
1734.00,0.0121
1733.00,0.0122
1732.00,0.0126
1731.00,0.0131
1730.00,0.0133
1729.00,0.0134
1728.00,0.0136
1727.00,0.0139
1726.00,0.0141
1725.00,0.0144
1724.00,0.0148
1723.00,0.0152
1722.00,0.0156
1721.00,0.0160
1720.00,0.0166
1719.00,0.0170
1718.00,0.0174
1717.00,0.0178
1716.00,0.0183
1715.00,0.0189
1714.00,0.0193
1713.00,0.0198
1712.00,0.0203
1711.00,0.0209
1710.00,0.0215
1709.00,0.0222
1708.00,0.0231
1707.00,0.0241
1706.00,0.0251
1705.00,0.0260
1704.00,0.0269
1703.00,0.0276
1702.00,0.0285
1701.00,0.0298
1700.00,0.0316
1699.00,0.0332
1698.00,0.0345
1697.00,0.0359
1696.00,0.0377
1695.00,0.0396
1694.00,0.0415
1693.00,0.0432
1692.00,0.0449
1691.00,0.0467
1690.00,0.0485
1689.00,0.0505
1688.00,0.0523
1687.00,0.0539
1686.00,0.0556
1685.00,0.0583
1684.00,0.0619
1683.00,0.0651
1682.00,0.0673
1681.00,0.0690
1680.00,0.0707
1679.00,0.0723
1678.00,0.0740
1677.00,0.0758
1676.00,0.0782
1675.00,0.0810
1674.00,0.0837
1673.00,0.0860
1672.00,0.0879
1671.00,0.0899
1670.00,0.0925
1669.00,0.0954
1668.00,0.0983
1667.00,0.1005
1666.00,0.1023
1665.00,0.1040
1664.00,0.1061
1663.00,0.1089
1662.00,0.1119
1661.00,0.1147
1660.00,0.1171
1659.00,0.1190
1658.00,0.1207
1657.00,0.1218
1656.00,0.1225
1655.00,0.1231
1654.00,0.1252
1653.00,0.1298
1652.00,0.1345
1651.00,0.1371
1650.00,0.1377
1649.00,0.1375
1648.00,0.1377
1647.00,0.1389
1646.00,0.1407
1645.00,0.1421
1644.00,0.1428
1643.00,0.1429
1642.00,0.1427
1641.00,0.1426
1640.00,0.1425
1639.00,0.1424
1638.00,0.1420
1637.00,0.1418
1636.00,0.1423
1635.00,0.1433
1634.00,0.1436
1633.00,0.1429
1632.00,0.1415
1631.00,0.1398
1630.00,0.1381
1629.00,0.1365
1628.00,0.1351
1627.00,0.1336
1626.00,0.1320
1625.00,0.1301
1624.00,0.1280
1623.00,0.1260
1622.00,0.1239
1621.00,0.1217
1620.00,0.1192
1619.00,0.1165
1618.00,0.1135
1617.00,0.1108
1616.00,0.1084
1615.00,0.1064
1614.00,0.1041
1613.00,0.1015
1612.00,0.0986
1611.00,0.0958
1610.00,0.0932
1609.00,0.0907
1608.00,0.0882
1607.00,0.0859
1606.00,0.0836
1605.00,0.0814
1604.00,0.0792
1603.00,0.0770
1602.00,0.0750
1601.00,0.0730
1600.00,0.0710
1599.00,0.0690
1598.00,0.0672
1597.00,0.0655
1596.00,0.0639
1595.00,0.0623
1594.00,0.0608
1593.00,0.0594
1592.00,0.0579
1591.00,0.0565
1590.00,0.0553
1589.00,0.0541
1588.00,0.0530
1587.00,0.0519
1586.00,0.0510
1585.00,0.0501
1584.00,0.0493
1583.00,0.0486
1582.00,0.0480
1581.00,0.0475
1580.00,0.0469
1579.00,0.0463
1578.00,0.0458
1577.00,0.0453
1576.00,0.0452
1575.00,0.0453
1574.00,0.0454
1573.00,0.0454
1572.00,0.0452
1571.00,0.0451
1570.00,0.0452
1569.00,0.0454
1568.00,0.0455
1567.00,0.0457
1566.00,0.0459
1565.00,0.0461
1564.00,0.0463
1563.00,0.0463
1562.00,0.0463
1561.00,0.0464
1560.00,0.0472
1559.00,0.0489
1558.00,0.0507
1557.00,0.0516
1556.00,0.0518
1555.00,0.0518
1554.00,0.0520
1553.00,0.0523
1552.00,0.0526
1551.00,0.0529
1550.00,0.0531
1549.00,0.0533
1548.00,0.0534
1547.00,0.0533
1546.00,0.0531
1545.00,0.0530
1544.00,0.0529
1543.00,0.0529
1542.00,0.0528
1541.00,0.0525
1540.00,0.0519
1539.00,0.0511
1538.00,0.0503
1537.00,0.0496
1536.00,0.0489
1535.00,0.0480
1534.00,0.0470
1533.00,0.0461
1532.00,0.0452
1531.00,0.0443
1530.00,0.0434
1529.00,0.0425
1528.00,0.0415
1527.00,0.0406
1526.00,0.0397
1525.00,0.0390
1524.00,0.0382
1523.00,0.0373
1522.00,0.0363
1521.00,0.0355
1520.00,0.0350
1519.00,0.0346
1518.00,0.0340
1517.00,0.0330
1516.00,0.0318
1515.00,0.0306
1514.00,0.0294
1513.00,0.0281
1512.00,0.0269
1511.00,0.0258
1510.00,0.0248
1509.00,0.0239
1508.00,0.0230
1507.00,0.0219
1506.00,0.0207
1505.00,0.0195
1504.00,0.0186
1503.00,0.0179
1502.00,0.0171
1501.00,0.0163
1500.00,0.0156
1499.00,0.0150
1498.00,0.0142
1497.00,0.0134
1496.00,0.0127
1495.00,0.0122
1494.00,0.0119
1493.00,0.0116
1492.00,0.0114
1491.00,0.0111
1490.00,0.0108
1489.00,0.0106
1488.00,0.0105
1487.00,0.0103
1486.00,0.0100
1485.00,0.0099
1484.00,0.0099
1483.00,0.0100
1482.00,0.0102
1481.00,0.0105
1480.00,0.0108
1479.00,0.0112
1478.00,0.0116
1477.00,0.0121
1476.00,0.0127
1475.00,0.0133
1474.00,0.0140
1473.00,0.0149
1472.00,0.0158
1471.00,0.0165
1470.00,0.0170
1469.00,0.0173
1468.00,0.0176
1467.00,0.0178
1466.00,0.0181
1465.00,0.0185
1464.00,0.0189
1463.00,0.0193
1462.00,0.0196
1461.00,0.0198
1460.00,0.0200
1459.00,0.0202
1458.00,0.0205
1457.00,0.0211
1456.00,0.0217
1455.00,0.0222
1454.00,0.0224
1453.00,0.0224
1452.00,0.0223
1451.00,0.0222
1450.00,0.0221
1449.00,0.0221
1448.00,0.0221
1447.00,0.0221
1446.00,0.0221
1445.00,0.0221
1444.00,0.0220
1443.00,0.0220
1442.00,0.0220
1441.00,0.0220
1440.00,0.0220
1439.00,0.0220
1438.00,0.0220
1437.00,0.0221
1436.00,0.0225
1435.00,0.0229
1434.00,0.0231
1433.00,0.0233
1432.00,0.0235
1431.00,0.0237
1430.00,0.0240
1429.00,0.0242
1428.00,0.0245
1427.00,0.0247
1426.00,0.0249
1425.00,0.0252
1424.00,0.0256
1423.00,0.0258
1422.00,0.0259
1421.00,0.0259
1420.00,0.0259
1419.00,0.0262
1418.00,0.0266
1417.00,0.0270
1416.00,0.0271
1415.00,0.0271
1414.00,0.0268
1413.00,0.0266
1412.00,0.0264
1411.00,0.0262
1410.00,0.0260
1409.00,0.0258
1408.00,0.0255
1407.00,0.0252
1406.00,0.0248
1405.00,0.0245
1404.00,0.0242
1403.00,0.0238
1402.00,0.0234
1401.00,0.0228
1400.00,0.0223
1399.00,0.0218
1398.00,0.0214
1397.00,0.0209
1396.00,0.0205
1395.00,0.0201
1394.00,0.0198
1393.00,0.0195
1392.00,0.0194
1391.00,0.0192
1390.00,0.0190
1389.00,0.0190
1388.00,0.0191
1387.00,0.0195
1386.00,0.0199
1385.00,0.0204
1384.00,0.0208
1383.00,0.0211
1382.00,0.0214
1381.00,0.0217
1380.00,0.0218
1379.00,0.0220
1378.00,0.0221
1377.00,0.0221
1376.00,0.0220
1375.00,0.0219
1374.00,0.0216
1373.00,0.0213
1372.00,0.0210
1371.00,0.0206
1370.00,0.0201
1369.00,0.0196
1368.00,0.0191
1367.00,0.0186
1366.00,0.0180
1365.00,0.0175
1364.00,0.0170
1363.00,0.0166
1362.00,0.0164
1361.00,0.0163
1360.00,0.0161
1359.00,0.0159
1358.00,0.0158
1357.00,0.0155
1356.00,0.0153
1355.00,0.0151
1354.00,0.0149
1353.00,0.0147
1352.00,0.0143
1351.00,0.0140
1350.00,0.0135
1349.00,0.0131
1348.00,0.0126
1347.00,0.0121
1346.00,0.0116
1345.00,0.0111
1344.00,0.0106
1343.00,0.0102
1342.00,0.0097
1341.00,0.0092
1340.00,0.0088
1339.00,0.0086
1338.00,0.0084
1337.00,0.0081
1336.00,0.0079
1335.00,0.0076
1334.00,0.0073
1333.00,0.0070
1332.00,0.0067
1331.00,0.0064
1330.00,0.0063
1329.00,0.0062
1328.00,0.0061
1327.00,0.0061
1326.00,0.0062
1325.00,0.0062
1324.00,0.0062
1323.00,0.0062
1322.00,0.0062
1321.00,0.0062
1320.00,0.0062
1319.00,0.0063
1318.00,0.0063
1317.00,0.0063
1316.00,0.0063
1315.00,0.0063
1314.00,0.0062
1313.00,0.0062
1312.00,0.0062
1311.00,0.0062
1310.00,0.0063
1309.00,0.0064
1308.00,0.0065
1307.00,0.0066
1306.00,0.0068
1305.00,0.0070
1304.00,0.0074
1303.00,0.0078
1302.00,0.0082
1301.00,0.0088
1300.00,0.0094
1299.00,0.0101
1298.00,0.0109
1297.00,0.0118
1296.00,0.0127
1295.00,0.0138
1294.00,0.0150
1293.00,0.0162
1292.00,0.0176
1291.00,0.0190
1290.00,0.0206
1289.00,0.0223
1288.00,0.0241
1287.00,0.0260
1286.00,0.0280
1285.00,0.0302
1284.00,0.0324
1283.00,0.0346
1282.00,0.0370
1281.00,0.0395
1280.00,0.0421
1279.00,0.0447
1278.00,0.0473
1277.00,0.0500
1276.00,0.0528
1275.00,0.0555
1274.00,0.0584
1273.00,0.0613
1272.00,0.0642
1271.00,0.0671
1270.00,0.0699
1269.00,0.0727
1268.00,0.0754
1267.00,0.0780
1266.00,0.0805
1265.00,0.0828
1264.00,0.0851
1263.00,0.0873
1262.00,0.0894
1261.00,0.0914
1260.00,0.0934
1259.00,0.0952
1258.00,0.0968
1257.00,0.0983
1256.00,0.0997
1255.00,0.1009
1254.00,0.1021
1253.00,0.1032
1252.00,0.1042
1251.00,0.1052
1250.00,0.1060
1249.00,0.1068
1248.00,0.1076
1247.00,0.1083
1246.00,0.1089
1245.00,0.1096
1244.00,0.1104
1243.00,0.1111
1242.00,0.1119
1241.00,0.1128
1240.00,0.1137
1239.00,0.1147
1238.00,0.1157
1237.00,0.1168
1236.00,0.1180
1235.00,0.1192
1234.00,0.1204
1233.00,0.1217
1232.00,0.1229
1231.00,0.1241
1230.00,0.1253
1229.00,0.1264
1228.00,0.1275
1227.00,0.1285
1226.00,0.1294
1225.00,0.1301
1224.00,0.1308
1223.00,0.1313
1222.00,0.1316
1221.00,0.1319
1220.00,0.1321
1219.00,0.1320
1218.00,0.1316
1217.00,0.1311
1216.00,0.1303
1215.00,0.1293
1214.00,0.1281
1213.00,0.1267
1212.00,0.1250
1211.00,0.1232
1210.00,0.1212
1209.00,0.1191
1208.00,0.1171
1207.00,0.1149
1206.00,0.1127
1205.00,0.1105
1204.00,0.1084
1203.00,0.1065
1202.00,0.1047
1201.00,0.1031
1200.00,0.1018
1199.00,0.1007
1198.00,0.0998
1197.00,0.0992
1196.00,0.0986
1195.00,0.0981
1194.00,0.0973
1193.00,0.0962
1192.00,0.0947
1191.00,0.0927
1190.00,0.0902
1189.00,0.0873
1188.00,0.0841
1187.00,0.0808
1186.00,0.0775
1185.00,0.0745
1184.00,0.0718
1183.00,0.0696
1182.00,0.0679
1181.00,0.0665
1180.00,0.0656
1179.00,0.0650
1178.00,0.0647
1177.00,0.0647
1176.00,0.0650
1175.00,0.0657
1174.00,0.0666
1173.00,0.0679
1172.00,0.0695
1171.00,0.0714
1170.00,0.0735
1169.00,0.0759
1168.00,0.0787
1167.00,0.0816
1166.00,0.0847
1165.00,0.0879
1164.00,0.0912
1163.00,0.0945
1162.00,0.0977
1161.00,0.1008
1160.00,0.1037
1159.00,0.1063
1158.00,0.1086
1157.00,0.1106
1156.00,0.1123
1155.00,0.1137
1154.00,0.1147
1153.00,0.1153
1152.00,0.1157
1151.00,0.1157
1150.00,0.1154
1149.00,0.1147
1148.00,0.1139
1147.00,0.1128
1146.00,0.1116
1145.00,0.1103
1144.00,0.1090
1143.00,0.1078
1142.00,0.1066
1141.00,0.1056
1140.00,0.1049
1139.00,0.1045
1138.00,0.1041
1137.00,0.1038
1136.00,0.1037
1135.00,0.1038
1134.00,0.1041
1133.00,0.1047
1132.00,0.1058
1131.00,0.1073
1130.00,0.1094
1129.00,0.1119
1128.00,0.1147
1127.00,0.1172
1126.00,0.1191
1125.00,0.1201
1124.00,0.1199
1123.00,0.1187
1122.00,0.1167
1121.00,0.1143
1120.00,0.1119
1119.00,0.1095
1118.00,0.1073
1117.00,0.1054
1116.00,0.1039
1115.00,0.1027
1114.00,0.1017
1113.00,0.1011
1112.00,0.1009
1111.00,0.1008
1110.00,0.1011
1109.00,0.1017
1108.00,0.1027
1107.00,0.1041
1106.00,0.1058
1105.00,0.1078
1104.00,0.1100
1103.00,0.1125
1102.00,0.1152
1101.00,0.1181
1100.00,0.1212
1099.00,0.1242
1098.00,0.1270
1097.00,0.1298
1096.00,0.1323
1095.00,0.1345
1094.00,0.1365
1093.00,0.1382
1092.00,0.1399
1091.00,0.1416
1090.00,0.1433
1089.00,0.1452
1088.00,0.1474
1087.00,0.1498
1086.00,0.1523
1085.00,0.1551
1084.00,0.1582
1083.00,0.1614
1082.00,0.1648
1081.00,0.1684
1080.00,0.1723
1079.00,0.1763
1078.00,0.1802
1077.00,0.1842
1076.00,0.1880
1075.00,0.1917
1074.00,0.1952
1073.00,0.1984
1072.00,0.2013
1071.00,0.2037
1070.00,0.2057
1069.00,0.2073
1068.00,0.2086
1067.00,0.2092
1066.00,0.2091
1065.00,0.2083
1064.00,0.2067
1063.00,0.2045
1062.00,0.2020
1061.00,0.1994
1060.00,0.1970
1059.00,0.1947
1058.00,0.1928
1057.00,0.1914
1056.00,0.1905
1055.00,0.1902
1054.00,0.1904
1053.00,0.1911
1052.00,0.1924
1051.00,0.1941
1050.00,0.1962
1049.00,0.1988
1048.00,0.2019
1047.00,0.2053
1046.00,0.2088
1045.00,0.2124
1044.00,0.2158
1043.00,0.2189
1042.00,0.2214
1041.00,0.2234
1040.00,0.2249
1039.00,0.2257
1038.00,0.2260
1037.00,0.2259
1036.00,0.2257
1035.00,0.2253
1034.00,0.2250
1033.00,0.2249
1032.00,0.2250
1031.00,0.2252
1030.00,0.2251
1029.00,0.2245
1028.00,0.2234
1027.00,0.2215
1026.00,0.2187
1025.00,0.2150
1024.00,0.2106
1023.00,0.2055
1022.00,0.1998
1021.00,0.1940
1020.00,0.1881
1019.00,0.1821
1018.00,0.1762
1017.00,0.1705
1016.00,0.1652
1015.00,0.1603
1014.00,0.1558
1013.00,0.1519
1012.00,0.1485
1011.00,0.1455
1010.00,0.1428
1009.00,0.1406
1008.00,0.1387
1007.00,0.1369
1006.00,0.1351
1005.00,0.1331
1004.00,0.1307
1003.00,0.1276
1002.00,0.1238
1001.00,0.1192
1000.00,0.1141
999.00,0.1087
998.00,0.1032
997.00,0.0980
996.00,0.0934
995.00,0.0894
994.00,0.0859
993.00,0.0830
992.00,0.0805
991.00,0.0782
990.00,0.0759
989.00,0.0737
988.00,0.0715
987.00,0.0692
986.00,0.0668
985.00,0.0645
984.00,0.0624
983.00,0.0605
982.00,0.0590
981.00,0.0578
980.00,0.0569
979.00,0.0561
978.00,0.0555
977.00,0.0551
976.00,0.0547
975.00,0.0543
974.00,0.0538
973.00,0.0533
972.00,0.0527
971.00,0.0518
970.00,0.0505
969.00,0.0487
968.00,0.0462
967.00,0.0431
966.00,0.0394
965.00,0.0352
964.00,0.0309
963.00,0.0266
962.00,0.0225
961.00,0.0187
960.00,0.0154
959.00,0.0126
958.00,0.0103
957.00,0.0085
956.00,0.0072
955.00,0.0062
954.00,0.0055
953.00,0.0051
952.00,0.0050
951.00,0.0052
950.00,0.0056
949.00,0.0064
948.00,0.0074
947.00,0.0088
946.00,0.0105
945.00,0.0126
944.00,0.0152
943.00,0.0182
942.00,0.0217
941.00,0.0258
940.00,0.0304
939.00,0.0354
938.00,0.0408
937.00,0.0463
936.00,0.0519
935.00,0.0573
934.00,0.0623
933.00,0.0666
932.00,0.0703
931.00,0.0732
930.00,0.0754
929.00,0.0769
928.00,0.0778
927.00,0.0781
926.00,0.0778
925.00,0.0769
924.00,0.0757
923.00,0.0741
922.00,0.0723
921.00,0.0702
920.00,0.0680
919.00,0.0657
918.00,0.0631
917.00,0.0604
916.00,0.0575
915.00,0.0544
914.00,0.0511
913.00,0.0480
912.00,0.0449
911.00,0.0420
910.00,0.0394
909.00,0.0369
908.00,0.0348
907.00,0.0329
906.00,0.0313
905.00,0.0301
904.00,0.0291
903.00,0.0282
902.00,0.0276
901.00,0.0270
900.00,0.0265
899.00,0.0261
898.00,0.0258
897.00,0.0255
896.00,0.0253
895.00,0.0252
894.00,0.0252
893.00,0.0252
892.00,0.0252
891.00,0.0251
890.00,0.0247
889.00,0.0241
888.00,0.0233
887.00,0.0222
886.00,0.0206
885.00,0.0187
884.00,0.0165
883.00,0.0140
882.00,0.0116
881.00,0.0093
880.00,0.0075
879.00,0.0062
878.00,0.0053
877.00,0.0049
876.00,0.0050
875.00,0.0053
874.00,0.0057
873.00,0.0061
872.00,0.0064
871.00,0.0065
870.00,0.0065
869.00,0.0065
868.00,0.0065
867.00,0.0065
866.00,0.0068
865.00,0.0073
864.00,0.0082
863.00,0.0094
862.00,0.0110
861.00,0.0130
860.00,0.0153
859.00,0.0179
858.00,0.0206
857.00,0.0236
856.00,0.0267
855.00,0.0299
854.00,0.0333
853.00,0.0367
852.00,0.0401
851.00,0.0434
850.00,0.0463
849.00,0.0487
848.00,0.0506
847.00,0.0518
846.00,0.0523
845.00,0.0520
844.00,0.0510
843.00,0.0493
842.00,0.0470
841.00,0.0442
840.00,0.0410
839.00,0.0377
838.00,0.0344
837.00,0.0313
836.00,0.0284
835.00,0.0257
834.00,0.0231
833.00,0.0207
832.00,0.0185
831.00,0.0166
830.00,0.0148
829.00,0.0133
828.00,0.0119
827.00,0.0108
826.00,0.0097
825.00,0.0089
824.00,0.0080
823.00,0.0073
822.00,0.0067
821.00,0.0063
820.00,0.0060
819.00,0.0058
818.00,0.0057
817.00,0.0058
816.00,0.0059
815.00,0.0062
814.00,0.0064
813.00,0.0068
812.00,0.0074
811.00,0.0081
810.00,0.0088
809.00,0.0096
808.00,0.0103
807.00,0.0110
806.00,0.0115
805.00,0.0120
804.00,0.0124
803.00,0.0125
802.00,0.0125
801.00,0.0125
800.00,0.0123
799.00,0.0121
798.00,0.0117
797.00,0.0111
796.00,0.0105
795.00,0.0098
794.00,0.0090
793.00,0.0083
792.00,0.0076
791.00,0.0070
790.00,0.0065
789.00,0.0061
788.00,0.0059
787.00,0.0057
786.00,0.0055
785.00,0.0054
784.00,0.0055
783.00,0.0058
782.00,0.0061
781.00,0.0065
780.00,0.0070
779.00,0.0076
778.00,0.0083
777.00,0.0093
776.00,0.0103
775.00,0.0112
774.00,0.0118
773.00,0.0121
772.00,0.0121
771.00,0.0117
770.00,0.0111
769.00,0.0104
768.00,0.0097
767.00,0.0089
766.00,0.0081
765.00,0.0074
764.00,0.0068
763.00,0.0064
762.00,0.0060
761.00,0.0057
760.00,0.0056
759.00,0.0056
758.00,0.0058
757.00,0.0062
756.00,0.0069
755.00,0.0077
754.00,0.0086
753.00,0.0099
752.00,0.0114
751.00,0.0131
750.00,0.0149
749.00,0.0169
748.00,0.0188
747.00,0.0206
746.00,0.0223
745.00,0.0239
744.00,0.0254
743.00,0.0268
742.00,0.0279
741.00,0.0287
740.00,0.0295
739.00,0.0301
738.00,0.0306
737.00,0.0310
736.00,0.0313
735.00,0.0315
734.00,0.0314
733.00,0.0312
732.00,0.0310
731.00,0.0308
730.00,0.0307
729.00,0.0308
728.00,0.0310
727.00,0.0312
726.00,0.0313
725.00,0.0313
724.00,0.0313
723.00,0.0311
722.00,0.0306
721.00,0.0300
720.00,0.0293
719.00,0.0287
718.00,0.0282
717.00,0.0278
716.00,0.0276
715.00,0.0277
714.00,0.0281
713.00,0.0286
712.00,0.0294
711.00,0.0304
710.00,0.0316
709.00,0.0330
708.00,0.0346
707.00,0.0362
706.00,0.0377
705.00,0.0391
704.00,0.0403
703.00,0.0413
702.00,0.0419
701.00,0.0422
700.00,0.0422
699.00,0.0417
698.00,0.0409
697.00,0.0399
696.00,0.0388
695.00,0.0373
694.00,0.0355
693.00,0.0334
692.00,0.0312
691.00,0.0290
690.00,0.0269
689.00,0.0250
688.00,0.0233
687.00,0.0217
686.00,0.0201
685.00,0.0186
684.00,0.0175
683.00,0.0165
682.00,0.0156
681.00,0.0149
680.00,0.0145
679.00,0.0143
678.00,0.0143
677.00,0.0146
676.00,0.0150
675.00,0.0153
674.00,0.0154
673.00,0.0155
672.00,0.0155
671.00,0.0150
670.00,0.0144
669.00,0.0147
668.00,0.0168
667.00,0.0190
666.00,0.0195
665.00,0.0187
664.00,0.0180
663.00,0.0182
662.00,0.0192
661.00,0.0210
660.00,0.0231
659.00,0.0252
658.00,0.0268
657.00,0.0273
656.00,0.0268
655.00,0.0253
654.00,0.0231
653.00,0.0210
652.00,0.0192
651.00,0.0176
650.00,0.0164
649.00,0.0157
648.00,0.0157
647.00,0.0161
646.00,0.0169
645.00,0.0177
644.00,0.0180
643.00,0.0177
642.00,0.0166
641.00,0.0151
640.00,0.0137
639.00,0.0125
638.00,0.0115
637.00,0.0108
636.00,0.0107
635.00,0.0108
634.00,0.0111
633.00,0.0114
632.00,0.0118
631.00,0.0124
630.00,0.0132
629.00,0.0142
628.00,0.0155
627.00,0.0169
626.00,0.0185
625.00,0.0202
624.00,0.0220
623.00,0.0237
622.00,0.0253
621.00,0.0272
620.00,0.0294
619.00,0.0320
618.00,0.0345
617.00,0.0372
616.00,0.0399
615.00,0.0424
614.00,0.0446
613.00,0.0466
612.00,0.0487
611.00,0.0507
610.00,0.0527
609.00,0.0548
608.00,0.0572
607.00,0.0597
606.00,0.0621
605.00,0.0642
604.00,0.0661
603.00,0.0674
602.00,0.0681
601.00,0.0685
600.00,0.0689
599.00,0.0691
598.00,0.0690
597.00,0.0689
596.00,0.0689
595.00,0.0688
594.00,0.0682
593.00,0.0675
592.00,0.0672
591.00,0.0669
590.00,0.0666
589.00,0.0663
588.00,0.0661
587.00,0.0662
586.00,0.0665
585.00,0.0673
584.00,0.0686
583.00,0.0699
582.00,0.0707
581.00,0.0713
580.00,0.0719
579.00,0.0722
578.00,0.0722
577.00,0.0721
576.00,0.0720
575.00,0.0716
574.00,0.0706
573.00,0.0691
572.00,0.0676
571.00,0.0662
570.00,0.0649
569.00,0.0638
568.00,0.0630
567.00,0.0618
566.00,0.0603
565.00,0.0589
564.00,0.0579
563.00,0.0572
562.00,0.0563
561.00,0.0554
560.00,0.0547
559.00,0.0538
558.00,0.0524
557.00,0.0509
556.00,0.0496
555.00,0.0484
554.00,0.0471
553.00,0.0460
552.00,0.0456
551.00,0.0455
550.00,0.0454
549.00,0.0452
548.00,0.0449
547.00,0.0445
546.00,0.0441
545.00,0.0440
544.00,0.0444
543.00,0.0450
542.00,0.0454
541.00,0.0460
540.00,0.0466
539.00,0.0466
538.00,0.0458
537.00,0.0447
536.00,0.0440
535.00,0.0434
534.00,0.0426
533.00,0.0416
532.00,0.0409
531.00,0.0402
530.00,0.0395
529.00,0.0388
528.00,0.0386
527.00,0.0387
526.00,0.0387
525.00,0.0389
524.00,0.0391
523.00,0.0391
522.00,0.0387
521.00,0.0383
520.00,0.0380
519.00,0.0376
518.00,0.0367
517.00,0.0361
516.00,0.0362
515.00,0.0364
514.00,0.0360
513.00,0.0349
512.00,0.0337
511.00,0.0323
510.00,0.0305
509.00,0.0289
508.00,0.0278
507.00,0.0271
506.00,0.0260
505.00,0.0248
504.00,0.0238
503.00,0.0230
502.00,0.0219
501.00,0.0208
500.00,0.0200
499.00,0.0193
498.00,0.0188
497.00,0.0186
496.00,0.0187
495.00,0.0185
494.00,0.0179
493.00,0.0174
492.00,0.0175
491.00,0.0179
490.00,0.0176
489.00,0.0168
488.00,0.0163
487.00,0.0160
486.00,0.0155
485.00,0.0150
484.00,0.0150
483.00,0.0153
482.00,0.0155
481.00,0.0155
480.00,0.0154
479.00,0.0151
478.00,0.0144
477.00,0.0139
476.00,0.0138
475.00,0.0137
474.00,0.0135
473.00,0.0137
472.00,0.0146
471.00,0.0151
470.00,0.0146
469.00,0.0138
468.00,0.0136
467.00,0.0133
466.00,0.0121
465.00,0.0105
464.00,0.0097
463.00,0.0094
462.00,0.0086
461.00,0.0071
460.00,0.0059
459.00,0.0055
458.00,0.0060
457.00,0.0070
456.00,0.0079
455.00,0.0076
454.00,0.0061
453.00,0.0048
452.00,0.0046
451.00,0.0050
450.00,0.0048
