Created as New Dataset,Sample 009 By Administrator Date Monday, June 09 2025
cm-1,A
4000.00,0.0050
3999.00,0.0050
3998.00,0.0050
3997.00,0.0050
3996.00,0.0050
3995.00,0.0050
3994.00,0.0050
3993.00,0.0050
3992.00,0.0051
3991.00,0.0051
3990.00,0.0051
3989.00,0.0051
3988.00,0.0051
3987.00,0.0051
3986.00,0.0051
3985.00,0.0051
3984.00,0.0051
3983.00,0.0051
3982.00,0.0051
3981.00,0.0051
3980.00,0.0051
3979.00,0.0050
3978.00,0.0050
3977.00,0.0050
3976.00,0.0050
3975.00,0.0050
3974.00,0.0051
3973.00,0.0051
3972.00,0.0051
3971.00,0.0051
3970.00,0.0052
3969.00,0.0052
3968.00,0.0052
3967.00,0.0052
3966.00,0.0051
3965.00,0.0051
3964.00,0.0051
3963.00,0.0051
3962.00,0.0051
3961.00,0.0051
3960.00,0.0051
3959.00,0.0051
3958.00,0.0051
3957.00,0.0051
3956.00,0.0051
3955.00,0.0051
3954.00,0.0052
3953.00,0.0052
3952.00,0.0052
3951.00,0.0052
3950.00,0.0052
3949.00,0.0051
3948.00,0.0051
3947.00,0.0051
3946.00,0.0051
3945.00,0.0052
3944.00,0.0052
3943.00,0.0052
3942.00,0.0052
3941.00,0.0051
3940.00,0.0051
3939.00,0.0051
3938.00,0.0051
3937.00,0.0052
3936.00,0.0052
3935.00,0.0052
3934.00,0.0053
3933.00,0.0053
3932.00,0.0052
3931.00,0.0052
3930.00,0.0051
3929.00,0.0051
3928.00,0.0051
3927.00,0.0051
3926.00,0.0051
3925.00,0.0052
3924.00,0.0052
3923.00,0.0052
3922.00,0.0052
3921.00,0.0052
3920.00,0.0052
3919.00,0.0052
3918.00,0.0052
3917.00,0.0052
3916.00,0.0051
3915.00,0.0051
3914.00,0.0051
3913.00,0.0051
3912.00,0.0051
3911.00,0.0051
3910.00,0.0050
3909.00,0.0051
3908.00,0.0051
3907.00,0.0052
3906.00,0.0053
3905.00,0.0053
3904.00,0.0054
3903.00,0.0054
3902.00,0.0053
3901.00,0.0053
3900.00,0.0052
3899.00,0.0051
3898.00,0.0051
3897.00,0.0051
3896.00,0.0052
3895.00,0.0052
3894.00,0.0052
3893.00,0.0052
3892.00,0.0051
3891.00,0.0051
3890.00,0.0052
3889.00,0.0052
3888.00,0.0052
3887.00,0.0053
3886.00,0.0053
3885.00,0.0053
3884.00,0.0053
3883.00,0.0053
3882.00,0.0053
3881.00,0.0052
3880.00,0.0052
3879.00,0.0051
3878.00,0.0051
3877.00,0.0051
3876.00,0.0051
3875.00,0.0051
3874.00,0.0052
3873.00,0.0052
3872.00,0.0053
3871.00,0.0053
3870.00,0.0053
3869.00,0.0053
3868.00,0.0053
3867.00,0.0053
3866.00,0.0053
3865.00,0.0052
3864.00,0.0052
3863.00,0.0051
3862.00,0.0050
3861.00,0.0050
3860.00,0.0050
3859.00,0.0050
3858.00,0.0051
3857.00,0.0052
3856.00,0.0053
3855.00,0.0054
3854.00,0.0054
3853.00,0.0053
3852.00,0.0052
3851.00,0.0051
3850.00,0.0051
3849.00,0.0051
3848.00,0.0051
3847.00,0.0051
3846.00,0.0052
3845.00,0.0052
3844.00,0.0052
3843.00,0.0052
3842.00,0.0053
3841.00,0.0053
3840.00,0.0053
3839.00,0.0053
3838.00,0.0053
3837.00,0.0053
3836.00,0.0053
3835.00,0.0053
3834.00,0.0052
3833.00,0.0052
3832.00,0.0051
3831.00,0.0051
3830.00,0.0051
3829.00,0.0051
3828.00,0.0050
3827.00,0.0051
3826.00,0.0051
3825.00,0.0052
3824.00,0.0052
3823.00,0.0053
3822.00,0.0053
3821.00,0.0053
3820.00,0.0053
3819.00,0.0054
3818.00,0.0053
3817.00,0.0052
3816.00,0.0051
3815.00,0.0051
3814.00,0.0051
3813.00,0.0051
3812.00,0.0051
3811.00,0.0052
3810.00,0.0052
3809.00,0.0053
3808.00,0.0053
3807.00,0.0053
3806.00,0.0053
3805.00,0.0053
3804.00,0.0053
3803.00,0.0053
3802.00,0.0053
3801.00,0.0052
3800.00,0.0052
3799.00,0.0052
3798.00,0.0052
3797.00,0.0052
3796.00,0.0052
3795.00,0.0052
3794.00,0.0052
3793.00,0.0052
3792.00,0.0052
3791.00,0.0052
3790.00,0.0052
3789.00,0.0053
3788.00,0.0053
3787.00,0.0053
3786.00,0.0053
3785.00,0.0053
3784.00,0.0053
3783.00,0.0053
3782.00,0.0053
3781.00,0.0053
3780.00,0.0054
3779.00,0.0054
3778.00,0.0054
3777.00,0.0054
3776.00,0.0054
3775.00,0.0053
3774.00,0.0053
3773.00,0.0054
3772.00,0.0054
3771.00,0.0054
3770.00,0.0054
3769.00,0.0054
3768.00,0.0054
3767.00,0.0054
3766.00,0.0054
3765.00,0.0055
3764.00,0.0055
3763.00,0.0055
3762.00,0.0056
3761.00,0.0056
3760.00,0.0056
3759.00,0.0057
3758.00,0.0057
3757.00,0.0057
3756.00,0.0057
3755.00,0.0058
3754.00,0.0058
3753.00,0.0058
3752.00,0.0059
3751.00,0.0059
3750.00,0.0059
3749.00,0.0060
3748.00,0.0060
3747.00,0.0060
3746.00,0.0060
3745.00,0.0060
3744.00,0.0060
3743.00,0.0060
3742.00,0.0060
3741.00,0.0060
3740.00,0.0060
3739.00,0.0060
3738.00,0.0060
3737.00,0.0060
3736.00,0.0060
3735.00,0.0060
3734.00,0.0060
3733.00,0.0060
3732.00,0.0060
3731.00,0.0061
3730.00,0.0061
3729.00,0.0061
3728.00,0.0061
3727.00,0.0061
3726.00,0.0061
3725.00,0.0062
3724.00,0.0062
3723.00,0.0063
3722.00,0.0063
3721.00,0.0063
3720.00,0.0063
3719.00,0.0063
3718.00,0.0064
3717.00,0.0064
3716.00,0.0065
3715.00,0.0065
3714.00,0.0066
3713.00,0.0066
3712.00,0.0067
3711.00,0.0068
3710.00,0.0068
3709.00,0.0069
3708.00,0.0069
3707.00,0.0070
3706.00,0.0070
3705.00,0.0071
3704.00,0.0072
3703.00,0.0072
3702.00,0.0073
3701.00,0.0073
3700.00,0.0074
3699.00,0.0075
3698.00,0.0075
3697.00,0.0076
3696.00,0.0077
3695.00,0.0078
3694.00,0.0079
3693.00,0.0080
3692.00,0.0081
3691.00,0.0082
3690.00,0.0084
3689.00,0.0086
3688.00,0.0088
3687.00,0.0090
3686.00,0.0091
3685.00,0.0092
3684.00,0.0093
3683.00,0.0094
3682.00,0.0096
3681.00,0.0098
3680.00,0.0100
3679.00,0.0102
3678.00,0.0104
3677.00,0.0107
3676.00,0.0110
3675.00,0.0114
3674.00,0.0117
3673.00,0.0119
3672.00,0.0121
3671.00,0.0123
3670.00,0.0126
3669.00,0.0130
3668.00,0.0134
3667.00,0.0137
3666.00,0.0139
3665.00,0.0142
3664.00,0.0144
3663.00,0.0146
3662.00,0.0149
3661.00,0.0153
3660.00,0.0156
3659.00,0.0160
3658.00,0.0164
3657.00,0.0169
3656.00,0.0175
3655.00,0.0180
3654.00,0.0183
3653.00,0.0186
3652.00,0.0188
3651.00,0.0191
3650.00,0.0197
3649.00,0.0205
3648.00,0.0215
3647.00,0.0223
3646.00,0.0230
3645.00,0.0234
3644.00,0.0238
3643.00,0.0241
3642.00,0.0244
3641.00,0.0248
3640.00,0.0253
3639.00,0.0258
3638.00,0.0263
3637.00,0.0268
3636.00,0.0274
3635.00,0.0279
3634.00,0.0284
3633.00,0.0288
3632.00,0.0292
3631.00,0.0296
3630.00,0.0303
3629.00,0.0314
3628.00,0.0328
3627.00,0.0339
3626.00,0.0346
3625.00,0.0351
3624.00,0.0353
3623.00,0.0355
3622.00,0.0357
3621.00,0.0361
3620.00,0.0368
3619.00,0.0377
3618.00,0.0387
3617.00,0.0396
3616.00,0.0402
3615.00,0.0408
3614.00,0.0413
3613.00,0.0419
3612.00,0.0426
3611.00,0.0431
3610.00,0.0438
3609.00,0.0445
3608.00,0.0453
3607.00,0.0462
3606.00,0.0469
3605.00,0.0475
3604.00,0.0479
3603.00,0.0483
3602.00,0.0488
3601.00,0.0494
3600.00,0.0500
3599.00,0.0507
3598.00,0.0513
3597.00,0.0519
3596.00,0.0526
3595.00,0.0533
3594.00,0.0541
3593.00,0.0549
3592.00,0.0554
3591.00,0.0557
3590.00,0.0559
3589.00,0.0564
3588.00,0.0573
3587.00,0.0585
3586.00,0.0597
3585.00,0.0606
3584.00,0.0612
3583.00,0.0616
3582.00,0.0619
3581.00,0.0623
3580.00,0.0628
3579.00,0.0633
3578.00,0.0639
3577.00,0.0646
3576.00,0.0652
3575.00,0.0659
3574.00,0.0665
3573.00,0.0670
3572.00,0.0674
3571.00,0.0676
3570.00,0.0678
3569.00,0.0681
3568.00,0.0689
3567.00,0.0702
3566.00,0.0716
3565.00,0.0728
3564.00,0.0736
3563.00,0.0741
3562.00,0.0745
3561.00,0.0748
3560.00,0.0753
3559.00,0.0758
3558.00,0.0763
3557.00,0.0767
3556.00,0.0771
3555.00,0.0775
3554.00,0.0780
3553.00,0.0787
3552.00,0.0794
3551.00,0.0802
3550.00,0.0808
3549.00,0.0813
3548.00,0.0817
3547.00,0.0823
3546.00,0.0831
3545.00,0.0840
3544.00,0.0849
3543.00,0.0856
3542.00,0.0862
3541.00,0.0866
3540.00,0.0870
3539.00,0.0874
3538.00,0.0878
3537.00,0.0884
3536.00,0.0890
3535.00,0.0897
3534.00,0.0902
3533.00,0.0907
3532.00,0.0911
3531.00,0.0915
3530.00,0.0920
3529.00,0.0926
3528.00,0.0933
3527.00,0.0940
3526.00,0.0947
3525.00,0.0954
3524.00,0.0960
3523.00,0.0966
3522.00,0.0973
3521.00,0.0978
3520.00,0.0984
3519.00,0.0988
3518.00,0.0994
3517.00,0.0999
3516.00,0.1005
3515.00,0.1010
3514.00,0.1015
3513.00,0.1018
3512.00,0.1022
3511.00,0.1027
3510.00,0.1033
3509.00,0.1040
3508.00,0.1047
3507.00,0.1053
3506.00,0.1058
3505.00,0.1062
3504.00,0.1067
3503.00,0.1074
3502.00,0.1082
3501.00,0.1089
3500.00,0.1095
3499.00,0.1100
3498.00,0.1104
3497.00,0.1108
3496.00,0.1113
3495.00,0.1119
3494.00,0.1124
3493.00,0.1129
3492.00,0.1134
3491.00,0.1139
3490.00,0.1145
3489.00,0.1150
3488.00,0.1156
3487.00,0.1162
3486.00,0.1167
3485.00,0.1171
3484.00,0.1176
3483.00,0.1181
3482.00,0.1188
3481.00,0.1196
3480.00,0.1202
3479.00,0.1208
3478.00,0.1212
3477.00,0.1216
3476.00,0.1220
3475.00,0.1225
3474.00,0.1231
3473.00,0.1236
3472.00,0.1242
3471.00,0.1247
3470.00,0.1253
3469.00,0.1258
3468.00,0.1263
3467.00,0.1268
3466.00,0.1272
3465.00,0.1277
3464.00,0.1281
3463.00,0.1285
3462.00,0.1291
3461.00,0.1297
3460.00,0.1302
3459.00,0.1308
3458.00,0.1312
3457.00,0.1316
3456.00,0.1321
3455.00,0.1326
3454.00,0.1331
3453.00,0.1336
3452.00,0.1340
3451.00,0.1344
3450.00,0.1347
3449.00,0.1350
3448.00,0.1355
3447.00,0.1361
3446.00,0.1368
3445.00,0.1375
3444.00,0.1380
3443.00,0.1385
3442.00,0.1389
3441.00,0.1394
3440.00,0.1399
3439.00,0.1404
3438.00,0.1408
3437.00,0.1413
3436.00,0.1417
3435.00,0.1421
3434.00,0.1424
3433.00,0.1428
3432.00,0.1432
3431.00,0.1436
3430.00,0.1440
3429.00,0.1444
3428.00,0.1448
3427.00,0.1452
3426.00,0.1456
3425.00,0.1460
3424.00,0.1463
3423.00,0.1466
3422.00,0.1470
3421.00,0.1475
3420.00,0.1480
3419.00,0.1485
3418.00,0.1490
3417.00,0.1494
3416.00,0.1497
3415.00,0.1500
3414.00,0.1503
3413.00,0.1506
3412.00,0.1509
3411.00,0.1513
3410.00,0.1516
3409.00,0.1519
3408.00,0.1522
3407.00,0.1524
3406.00,0.1527
3405.00,0.1530
3404.00,0.1534
3403.00,0.1538
3402.00,0.1541
3401.00,0.1544
3400.00,0.1547
3399.00,0.1548
3398.00,0.1550
3397.00,0.1552
3396.00,0.1555
3395.00,0.1557
3394.00,0.1560
3393.00,0.1563
3392.00,0.1566
3391.00,0.1568
3390.00,0.1570
3389.00,0.1570
3388.00,0.1571
3387.00,0.1572
3386.00,0.1574
3385.00,0.1576
3384.00,0.1578
3383.00,0.1580
3382.00,0.1582
3381.00,0.1583
3380.00,0.1584
3379.00,0.1585
3378.00,0.1586
3377.00,0.1587
3376.00,0.1588
3375.00,0.1589
3374.00,0.1590
3373.00,0.1592
3372.00,0.1593
3371.00,0.1594
3370.00,0.1595
3369.00,0.1596
3368.00,0.1596
3367.00,0.1595
3366.00,0.1596
3365.00,0.1596
3364.00,0.1597
3363.00,0.1597
3362.00,0.1598
3361.00,0.1597
3360.00,0.1597
3359.00,0.1596
3358.00,0.1596
3357.00,0.1596
3356.00,0.1596
3355.00,0.1596
3354.00,0.1597
3353.00,0.1598
3352.00,0.1598
3351.00,0.1598
3350.00,0.1597
3349.00,0.1596
3348.00,0.1595
3347.00,0.1594
3346.00,0.1593
3345.00,0.1593
3344.00,0.1592
3343.00,0.1591
3342.00,0.1591
3341.00,0.1589
3340.00,0.1588
3339.00,0.1587
3338.00,0.1586
3337.00,0.1585
3336.00,0.1584
3335.00,0.1584
3334.00,0.1583
3333.00,0.1581
3332.00,0.1580
3331.00,0.1578
3330.00,0.1576
3329.00,0.1575
3328.00,0.1574
3327.00,0.1574
3326.00,0.1572
3325.00,0.1571
3324.00,0.1570
3323.00,0.1569
3322.00,0.1568
3321.00,0.1568
3320.00,0.1567
3319.00,0.1566
3318.00,0.1564
3317.00,0.1563
3316.00,0.1561
3315.00,0.1559
3314.00,0.1558
3313.00,0.1556
3312.00,0.1555
3311.00,0.1554
3310.00,0.1553
3309.00,0.1552
3308.00,0.1551
3307.00,0.1550
3306.00,0.1549
3305.00,0.1547
3304.00,0.1546
3303.00,0.1544
3302.00,0.1543
3301.00,0.1541
3300.00,0.1540
3299.00,0.1538
3298.00,0.1537
3297.00,0.1536
3296.00,0.1535
3295.00,0.1533
3294.00,0.1532
3293.00,0.1530
3292.00,0.1529
3291.00,0.1528
3290.00,0.1527
3289.00,0.1526
3288.00,0.1525
3287.00,0.1523
3286.00,0.1520
3285.00,0.1518
3284.00,0.1517
3283.00,0.1515
3282.00,0.1513
3281.00,0.1511
3280.00,0.1509
3279.00,0.1507
3278.00,0.1505
3277.00,0.1502
3276.00,0.1500
3275.00,0.1498
3274.00,0.1496
3273.00,0.1494
3272.00,0.1492
3271.00,0.1489
3270.00,0.1486
3269.00,0.1484
3268.00,0.1481
3267.00,0.1478
3266.00,0.1475
3265.00,0.1472
3264.00,0.1469
3263.00,0.1466
3262.00,0.1462
3261.00,0.1459
3260.00,0.1456
3259.00,0.1453
3258.00,0.1449
3257.00,0.1446
3256.00,0.1443
3255.00,0.1439
3254.00,0.1436
3253.00,0.1433
3252.00,0.1430
3251.00,0.1426
3250.00,0.1422
3249.00,0.1418
3248.00,0.1413
3247.00,0.1408
3246.00,0.1404
3245.00,0.1401
3244.00,0.1398
3243.00,0.1395
3242.00,0.1391
3241.00,0.1387
3240.00,0.1383
3239.00,0.1379
3238.00,0.1374
3237.00,0.1370
3236.00,0.1366
3235.00,0.1362
3234.00,0.1358
3233.00,0.1355
3232.00,0.1351
3231.00,0.1347
3230.00,0.1342
3229.00,0.1338
3228.00,0.1333
3227.00,0.1329
3226.00,0.1325
3225.00,0.1320
3224.00,0.1316
3223.00,0.1311
3222.00,0.1306
3221.00,0.1301
3220.00,0.1296
3219.00,0.1292
3218.00,0.1288
3217.00,0.1283
3216.00,0.1278
3215.00,0.1273
3214.00,0.1269
3213.00,0.1264
3212.00,0.1259
3211.00,0.1254
3210.00,0.1248
3209.00,0.1243
3208.00,0.1237
3207.00,0.1232
3206.00,0.1227
3205.00,0.1222
3204.00,0.1217
3203.00,0.1211
3202.00,0.1205
3201.00,0.1200
3200.00,0.1194
3199.00,0.1188
3198.00,0.1183
3197.00,0.1178
3196.00,0.1173
3195.00,0.1167
3194.00,0.1161
3193.00,0.1155
3192.00,0.1149
3191.00,0.1143
3190.00,0.1138
3189.00,0.1132
3188.00,0.1126
3187.00,0.1120
3186.00,0.1115
3185.00,0.1109
3184.00,0.1103
3183.00,0.1098
3182.00,0.1092
3181.00,0.1086
3180.00,0.1079
3179.00,0.1073
3178.00,0.1068
3177.00,0.1062
3176.00,0.1056
3175.00,0.1049
3174.00,0.1043
3173.00,0.1037
3172.00,0.1031
3171.00,0.1025
3170.00,0.1019
3169.00,0.1013
3168.00,0.1007
3167.00,0.1002
3166.00,0.0996
3165.00,0.0990
3164.00,0.0984
3163.00,0.0978
3162.00,0.0971
3161.00,0.0965
3160.00,0.0959
3159.00,0.0953
3158.00,0.0947
3157.00,0.0942
3156.00,0.0936
3155.00,0.0930
3154.00,0.0924
3153.00,0.0919
3152.00,0.0913
3151.00,0.0907
3150.00,0.0902
3149.00,0.0896
3148.00,0.0890
3147.00,0.0884
3146.00,0.0878
3145.00,0.0873
3144.00,0.0867
3143.00,0.0861
3142.00,0.0856
3141.00,0.0851
3140.00,0.0845
3139.00,0.0840
3138.00,0.0834
3137.00,0.0828
3136.00,0.0822
3135.00,0.0817
3134.00,0.0812
3133.00,0.0807
3132.00,0.0802
3131.00,0.0796
3130.00,0.0791
3129.00,0.0786
3128.00,0.0781
3127.00,0.0776
3126.00,0.0772
3125.00,0.0768
3124.00,0.0763
3123.00,0.0758
3122.00,0.0753
3121.00,0.0749
3120.00,0.0744
3119.00,0.0739
3118.00,0.0734
3117.00,0.0729
3116.00,0.0724
3115.00,0.0720
3114.00,0.0715
3113.00,0.0711
3112.00,0.0707
3111.00,0.0702
3110.00,0.0698
3109.00,0.0694
3108.00,0.0691
3107.00,0.0687
3106.00,0.0683
3105.00,0.0678
3104.00,0.0674
3103.00,0.0670
3102.00,0.0666
3101.00,0.0662
3100.00,0.0658
3099.00,0.0655
3098.00,0.0651
3097.00,0.0647
3096.00,0.0644
3095.00,0.0640
3094.00,0.0637
3093.00,0.0633
3092.00,0.0630
3091.00,0.0626
3090.00,0.0623
3089.00,0.0619
3088.00,0.0616
3087.00,0.0612
3086.00,0.0609
3085.00,0.0606
3084.00,0.0602
3083.00,0.0599
3082.00,0.0595
3081.00,0.0591
3080.00,0.0588
3079.00,0.0585
3078.00,0.0582
3077.00,0.0580
3076.00,0.0577
3075.00,0.0574
3074.00,0.0570
3073.00,0.0567
3072.00,0.0563
3071.00,0.0560
3070.00,0.0556
3069.00,0.0553
3068.00,0.0550
3067.00,0.0547
3066.00,0.0544
3065.00,0.0541
3064.00,0.0538
3063.00,0.0534
3062.00,0.0531
3061.00,0.0528
3060.00,0.0524
3059.00,0.0521
3058.00,0.0518
3057.00,0.0514
3056.00,0.0511
3055.00,0.0508
3054.00,0.0504
3053.00,0.0501
3052.00,0.0497
3051.00,0.0494
3050.00,0.0491
3049.00,0.0488
3048.00,0.0484
3047.00,0.0481
3046.00,0.0478
3045.00,0.0474
3044.00,0.0471
3043.00,0.0468
3042.00,0.0465
3041.00,0.0463
3040.00,0.0460
3039.00,0.0456
3038.00,0.0453
3037.00,0.0451
3036.00,0.0448
3035.00,0.0446
3034.00,0.0443
3033.00,0.0441
3032.00,0.0438
3031.00,0.0436
3030.00,0.0433
3029.00,0.0430
3028.00,0.0428
3027.00,0.0425
3026.00,0.0423
3025.00,0.0420
3024.00,0.0418
3023.00,0.0415
3022.00,0.0413
3021.00,0.0411
3020.00,0.0409
3019.00,0.0407
3018.00,0.0405
3017.00,0.0403
3016.00,0.0401
3015.00,0.0400
3014.00,0.0398
3013.00,0.0396
3012.00,0.0394
3011.00,0.0392
3010.00,0.0391
3009.00,0.0389
3008.00,0.0387
3007.00,0.0386
3006.00,0.0384
3005.00,0.0383
3004.00,0.0381
3003.00,0.0380
3002.00,0.0379
3001.00,0.0378
3000.00,0.0376
2999.00,0.0376
2998.00,0.0375
2997.00,0.0375
2996.00,0.0375
2995.00,0.0374
2994.00,0.0374
2993.00,0.0373
2992.00,0.0373
2991.00,0.0373
2990.00,0.0374
2989.00,0.0374
2988.00,0.0375
2987.00,0.0375
2986.00,0.0376
2985.00,0.0376
2984.00,0.0377
2983.00,0.0378
2982.00,0.0379
2981.00,0.0380
2980.00,0.0382
2979.00,0.0383
2978.00,0.0384
2977.00,0.0385
2976.00,0.0386
2975.00,0.0388
2974.00,0.0390
2973.00,0.0391
2972.00,0.0393
2971.00,0.0395
2970.00,0.0396
2969.00,0.0398
2968.00,0.0399
2967.00,0.0401
2966.00,0.0402
2965.00,0.0403
2964.00,0.0404
2963.00,0.0404
2962.00,0.0404
2961.00,0.0404
2960.00,0.0405
2959.00,0.0404
2958.00,0.0404
2957.00,0.0402
2956.00,0.0401
2955.00,0.0400
2954.00,0.0399
2953.00,0.0397
2952.00,0.0396
2951.00,0.0395
2950.00,0.0394
2949.00,0.0393
2948.00,0.0393
2947.00,0.0392
2946.00,0.0391
2945.00,0.0391
2944.00,0.0391
2943.00,0.0392
2942.00,0.0392
2941.00,0.0393
2940.00,0.0393
2939.00,0.0394
2938.00,0.0394
2937.00,0.0395
2936.00,0.0395
2935.00,0.0396
2934.00,0.0396
2933.00,0.0397
2932.00,0.0397
2931.00,0.0396
2930.00,0.0396
2929.00,0.0396
2928.00,0.0396
2927.00,0.0396
2926.00,0.0396
2925.00,0.0396
2924.00,0.0396
2923.00,0.0395
2922.00,0.0394
2921.00,0.0392
2920.00,0.0389
2919.00,0.0387
2918.00,0.0385
2917.00,0.0382
2916.00,0.0379
2915.00,0.0376
2914.00,0.0372
2913.00,0.0369
2912.00,0.0366
2911.00,0.0363
2910.00,0.0360
2909.00,0.0357
2908.00,0.0355
2907.00,0.0353
2906.00,0.0351
2905.00,0.0349
2904.00,0.0346
2903.00,0.0344
2902.00,0.0342
2901.00,0.0339
2900.00,0.0337
2899.00,0.0334
2898.00,0.0332
2897.00,0.0329
2896.00,0.0327
2895.00,0.0325
2894.00,0.0323
2893.00,0.0321
2892.00,0.0319
2891.00,0.0317
2890.00,0.0315
2889.00,0.0313
2888.00,0.0311
2887.00,0.0309
2886.00,0.0307
2885.00,0.0305
2884.00,0.0304
2883.00,0.0302
2882.00,0.0301
2881.00,0.0299
2880.00,0.0298
2879.00,0.0297
2878.00,0.0295
2877.00,0.0294
2876.00,0.0293
2875.00,0.0291
2874.00,0.0290
2873.00,0.0288
2872.00,0.0286
2871.00,0.0284
2870.00,0.0282
2869.00,0.0280
2868.00,0.0277
2867.00,0.0275
2866.00,0.0273
2865.00,0.0271
2864.00,0.0269
2863.00,0.0267
2862.00,0.0266
2861.00,0.0265
2860.00,0.0265
2859.00,0.0264
2858.00,0.0264
2857.00,0.0264
2856.00,0.0263
2855.00,0.0263
2854.00,0.0262
2853.00,0.0261
2852.00,0.0260
2851.00,0.0258
2850.00,0.0255
2849.00,0.0252
2848.00,0.0248
2847.00,0.0244
2846.00,0.0241
2845.00,0.0237
2844.00,0.0234
2843.00,0.0231
2842.00,0.0228
2841.00,0.0225
2840.00,0.0223
2839.00,0.0221
2838.00,0.0219
2837.00,0.0217
2836.00,0.0216
2835.00,0.0214
2834.00,0.0213
2833.00,0.0211
2832.00,0.0210
2831.00,0.0208
2830.00,0.0207
2829.00,0.0206
2828.00,0.0205
2827.00,0.0204
2826.00,0.0202
2825.00,0.0201
2824.00,0.0200
2823.00,0.0199
2822.00,0.0198
2821.00,0.0197
2820.00,0.0196
2819.00,0.0195
2818.00,0.0194
2817.00,0.0193
2816.00,0.0192
2815.00,0.0191
2814.00,0.0190
2813.00,0.0189
2812.00,0.0188
2811.00,0.0187
2810.00,0.0186
2809.00,0.0186
2808.00,0.0185
2807.00,0.0184
2806.00,0.0183
2805.00,0.0182
2804.00,0.0181
2803.00,0.0180
2802.00,0.0180
2801.00,0.0179
2800.00,0.0179
2799.00,0.0178
2798.00,0.0177
2797.00,0.0176
2796.00,0.0175
2795.00,0.0174
2794.00,0.0173
2793.00,0.0172
2792.00,0.0172
2791.00,0.0171
2790.00,0.0170
2789.00,0.0169
2788.00,0.0169
2787.00,0.0169
2786.00,0.0168
2785.00,0.0168
2784.00,0.0167
2783.00,0.0166
2782.00,0.0165
2781.00,0.0165
2780.00,0.0164
2779.00,0.0163
2778.00,0.0162
2777.00,0.0162
2776.00,0.0161
2775.00,0.0161
2774.00,0.0161
2773.00,0.0160
2772.00,0.0160
2771.00,0.0159
2770.00,0.0158
2769.00,0.0158
2768.00,0.0157
2767.00,0.0157
2766.00,0.0156
2765.00,0.0156
2764.00,0.0155
2763.00,0.0154
2762.00,0.0154
2761.00,0.0153
2760.00,0.0153
2759.00,0.0153
2758.00,0.0152
2757.00,0.0151
2756.00,0.0151
2755.00,0.0150
2754.00,0.0150
2753.00,0.0150
2752.00,0.0149
2751.00,0.0149
2750.00,0.0148
2749.00,0.0148
2748.00,0.0148
2747.00,0.0148
2746.00,0.0147
2745.00,0.0146
2744.00,0.0146
2743.00,0.0145
2742.00,0.0145
2741.00,0.0144
2740.00,0.0144
2739.00,0.0144
2738.00,0.0144
2737.00,0.0143
2736.00,0.0143
2735.00,0.0143
2734.00,0.0142
2733.00,0.0142
2732.00,0.0141
2731.00,0.0141
2730.00,0.0140
2729.00,0.0140
2728.00,0.0139
2727.00,0.0138
2726.00,0.0138
2725.00,0.0138
2724.00,0.0138
2723.00,0.0137
2722.00,0.0137
2721.00,0.0137
2720.00,0.0137
2719.00,0.0136
2718.00,0.0136
2717.00,0.0135
2716.00,0.0135
2715.00,0.0135
2714.00,0.0134
2713.00,0.0134
2712.00,0.0133
2711.00,0.0133
2710.00,0.0133
2709.00,0.0133
2708.00,0.0132
2707.00,0.0132
2706.00,0.0132
2705.00,0.0131
2704.00,0.0131
2703.00,0.0131
2702.00,0.0130
2701.00,0.0130
2700.00,0.0129
2699.00,0.0129
2698.00,0.0128
2697.00,0.0128
2696.00,0.0128
2695.00,0.0127
2694.00,0.0127
2693.00,0.0127
2692.00,0.0127
2691.00,0.0127
2690.00,0.0126
2689.00,0.0126
2688.00,0.0126
2687.00,0.0126
2686.00,0.0126
2685.00,0.0126
2684.00,0.0126
2683.00,0.0126
2682.00,0.0125
2681.00,0.0124
2680.00,0.0124
2679.00,0.0124
2678.00,0.0123
2677.00,0.0123
2676.00,0.0123
2675.00,0.0122
2674.00,0.0122
2673.00,0.0122
2672.00,0.0122
2671.00,0.0122
2670.00,0.0121
2669.00,0.0121
2668.00,0.0121
2667.00,0.0121
2666.00,0.0121
2665.00,0.0122
2664.00,0.0122
2663.00,0.0122
2662.00,0.0122
2661.00,0.0122
2660.00,0.0122
2659.00,0.0122
2658.00,0.0122
2657.00,0.0122
2656.00,0.0122
2655.00,0.0121
2654.00,0.0121
2653.00,0.0121
2652.00,0.0121
2651.00,0.0121
2650.00,0.0120
2649.00,0.0120
2648.00,0.0120
2647.00,0.0120
2646.00,0.0120
2645.00,0.0119
2644.00,0.0119
2643.00,0.0118
2642.00,0.0117
2641.00,0.0116
2640.00,0.0116
2639.00,0.0116
2638.00,0.0115
2637.00,0.0115
2636.00,0.0114
2635.00,0.0114
2634.00,0.0114
2633.00,0.0114
2632.00,0.0114
2631.00,0.0114
2630.00,0.0113
2629.00,0.0112
2628.00,0.0111
2627.00,0.0111
2626.00,0.0110
2625.00,0.0110
2624.00,0.0109
2623.00,0.0109
2622.00,0.0109
2621.00,0.0109
2620.00,0.0108
2619.00,0.0108
2618.00,0.0108
2617.00,0.0107
2616.00,0.0107
2615.00,0.0107
2614.00,0.0106
2613.00,0.0106
2612.00,0.0106
2611.00,0.0105
2610.00,0.0105
2609.00,0.0105
2608.00,0.0104
2607.00,0.0103
2606.00,0.0103
2605.00,0.0102
2604.00,0.0102
2603.00,0.0102
2602.00,0.0101
2601.00,0.0101
2600.00,0.0101
2599.00,0.0101
2598.00,0.0101
2597.00,0.0101
2596.00,0.0101
2595.00,0.0101
2594.00,0.0101
2593.00,0.0100
2592.00,0.0099
2591.00,0.0099
2590.00,0.0099
2589.00,0.0098
2588.00,0.0098
2587.00,0.0098
2586.00,0.0097
2585.00,0.0097
2584.00,0.0097
2583.00,0.0097
2582.00,0.0096
2581.00,0.0096
2580.00,0.0096
2579.00,0.0096
2578.00,0.0096
2577.00,0.0096
2576.00,0.0095
2575.00,0.0095
2574.00,0.0095
2573.00,0.0094
2572.00,0.0094
2571.00,0.0094
2570.00,0.0094
2569.00,0.0093
2568.00,0.0093
2567.00,0.0093
2566.00,0.0093
2565.00,0.0093
2564.00,0.0093
2563.00,0.0093
2562.00,0.0092
2561.00,0.0092
2560.00,0.0092
2559.00,0.0093
2558.00,0.0093
2557.00,0.0093
2556.00,0.0093
2555.00,0.0093
2554.00,0.0092
2553.00,0.0092
2552.00,0.0091
2551.00,0.0091
2550.00,0.0090
2549.00,0.0090
2548.00,0.0090
2547.00,0.0090
2546.00,0.0090
2545.00,0.0089
2544.00,0.0089
2543.00,0.0089
2542.00,0.0089
2541.00,0.0090
2540.00,0.0090
2539.00,0.0091
2538.00,0.0091
2537.00,0.0091
2536.00,0.0091
2535.00,0.0090
2534.00,0.0090
2533.00,0.0089
2532.00,0.0089
2531.00,0.0089
2530.00,0.0089
2529.00,0.0089
2528.00,0.0088
2527.00,0.0088
2526.00,0.0088
2525.00,0.0088
2524.00,0.0088
2523.00,0.0088
2522.00,0.0088
2521.00,0.0087
2520.00,0.0087
2519.00,0.0088
2518.00,0.0088
2517.00,0.0088
2516.00,0.0088
2515.00,0.0088
2514.00,0.0088
2513.00,0.0088
2512.00,0.0088
2511.00,0.0087
2510.00,0.0086
2509.00,0.0087
2508.00,0.0087
2507.00,0.0087
2506.00,0.0088
2505.00,0.0088
2504.00,0.0087
2503.00,0.0087
2502.00,0.0087
2501.00,0.0087
2500.00,0.0087
2499.00,0.0087
2498.00,0.0088
2497.00,0.0088
2496.00,0.0087
2495.00,0.0087
2494.00,0.0087
2493.00,0.0086
2492.00,0.0086
2491.00,0.0086
2490.00,0.0087
2489.00,0.0087
2488.00,0.0088
2487.00,0.0087
2486.00,0.0087
2485.00,0.0086
2484.00,0.0086
2483.00,0.0086
2482.00,0.0087
2481.00,0.0087
2480.00,0.0086
2479.00,0.0086
2478.00,0.0085
2477.00,0.0085
2476.00,0.0085
2475.00,0.0085
2474.00,0.0085
2473.00,0.0085
2472.00,0.0084
2471.00,0.0084
2470.00,0.0084
2469.00,0.0083
2468.00,0.0083
2467.00,0.0083
2466.00,0.0083
2465.00,0.0083
2464.00,0.0084
2463.00,0.0084
2462.00,0.0084
2461.00,0.0085
2460.00,0.0085
2459.00,0.0086
2458.00,0.0086
2457.00,0.0086
2456.00,0.0086
2455.00,0.0086
2454.00,0.0086
2453.00,0.0087
2452.00,0.0087
2451.00,0.0088
2450.00,0.0087
2449.00,0.0087
2448.00,0.0087
2447.00,0.0086
2446.00,0.0086
2445.00,0.0086
2444.00,0.0085
2443.00,0.0084
2442.00,0.0084
2441.00,0.0083
2440.00,0.0083
2439.00,0.0083
2438.00,0.0083
2437.00,0.0083
2436.00,0.0084
2435.00,0.0084
2434.00,0.0084
2433.00,0.0083
2432.00,0.0083
2431.00,0.0083
2430.00,0.0083
2429.00,0.0082
2428.00,0.0081
2427.00,0.0081
2426.00,0.0081
2425.00,0.0081
2424.00,0.0081
2423.00,0.0081
2422.00,0.0081
2421.00,0.0082
2420.00,0.0082
2419.00,0.0082
2418.00,0.0083
2417.00,0.0083
2416.00,0.0083
2415.00,0.0083
2414.00,0.0083
2413.00,0.0083
2412.00,0.0083
2411.00,0.0084
2410.00,0.0084
2409.00,0.0084
2408.00,0.0083
2407.00,0.0082
2406.00,0.0082
2405.00,0.0081
2404.00,0.0081
2403.00,0.0082
2402.00,0.0082
2401.00,0.0082
2400.00,0.0082
2399.00,0.0082
2398.00,0.0083
2397.00,0.0083
2396.00,0.0083
2395.00,0.0083
2394.00,0.0083
2393.00,0.0083
2392.00,0.0082
2391.00,0.0082
2390.00,0.0082
2389.00,0.0082
2388.00,0.0081
2387.00,0.0082
2386.00,0.0082
2385.00,0.0082
2384.00,0.0082
2383.00,0.0081
2382.00,0.0080
2381.00,0.0080
2380.00,0.0079
2379.00,0.0079
2378.00,0.0079
2377.00,0.0079
2376.00,0.0080
2375.00,0.0081
2374.00,0.0082
2373.00,0.0083
2372.00,0.0083
2371.00,0.0084
2370.00,0.0083
2369.00,0.0083
2368.00,0.0082
2367.00,0.0082
2366.00,0.0082
2365.00,0.0082
2364.00,0.0083
2363.00,0.0084
2362.00,0.0085
2361.00,0.0087
2360.00,0.0089
2359.00,0.0090
2358.00,0.0091
2357.00,0.0091
2356.00,0.0090
2355.00,0.0089
2354.00,0.0088
2353.00,0.0088
2352.00,0.0089
2351.00,0.0089
2350.00,0.0089
2349.00,0.0089
2348.00,0.0089
2347.00,0.0089
2346.00,0.0090
2345.00,0.0091
2344.00,0.0092
2343.00,0.0093
2342.00,0.0094
2341.00,0.0094
2340.00,0.0094
2339.00,0.0095
2338.00,0.0095
2337.00,0.0095
2336.00,0.0095
2335.00,0.0095
2334.00,0.0094
2333.00,0.0094
2332.00,0.0094
2331.00,0.0094
2330.00,0.0094
2329.00,0.0096
2328.00,0.0099
2327.00,0.0102
2326.00,0.0107
2325.00,0.0111
2324.00,0.0112
2323.00,0.0112
2322.00,0.0110
2321.00,0.0108
2320.00,0.0107
2319.00,0.0106
2318.00,0.0106
2317.00,0.0105
2316.00,0.0104
2315.00,0.0103
2314.00,0.0101
2313.00,0.0101
2312.00,0.0100
2311.00,0.0100
2310.00,0.0100
2309.00,0.0101
2308.00,0.0101
2307.00,0.0101
2306.00,0.0101
2305.00,0.0101
2304.00,0.0101
2303.00,0.0101
2302.00,0.0102
2301.00,0.0103
2300.00,0.0103
2299.00,0.0103
2298.00,0.0103
2297.00,0.0103
2296.00,0.0104
2295.00,0.0105
2294.00,0.0106
2293.00,0.0108
2292.00,0.0109
2291.00,0.0110
2290.00,0.0111
2289.00,0.0112
2288.00,0.0112
2287.00,0.0113
2286.00,0.0113
2285.00,0.0114
2284.00,0.0113
2283.00,0.0112
2282.00,0.0110
2281.00,0.0108
2280.00,0.0107
2279.00,0.0106
2278.00,0.0106
2277.00,0.0105
2276.00,0.0105
2275.00,0.0105
2274.00,0.0105
2273.00,0.0106
2272.00,0.0107
2271.00,0.0107
2270.00,0.0105
2269.00,0.0104
2268.00,0.0104
2267.00,0.0104
2266.00,0.0104
2265.00,0.0103
2264.00,0.0101
2263.00,0.0100
2262.00,0.0101
2261.00,0.0102
2260.00,0.0103
2259.00,0.0104
2258.00,0.0104
2257.00,0.0103
2256.00,0.0102
2255.00,0.0101
2254.00,0.0100
2253.00,0.0100
2252.00,0.0101
2251.00,0.0101
2250.00,0.0101
2249.00,0.0100
2248.00,0.0099
2247.00,0.0098
2246.00,0.0098
2245.00,0.0098
2244.00,0.0099
2243.00,0.0100
2242.00,0.0102
2241.00,0.0103
2240.00,0.0103
2239.00,0.0103
2238.00,0.0103
2237.00,0.0102
2236.00,0.0102
2235.00,0.0102
2234.00,0.0101
2233.00,0.0101
2232.00,0.0100
2231.00,0.0100
2230.00,0.0101
2229.00,0.0102
2228.00,0.0102
2227.00,0.0101
2226.00,0.0100
2225.00,0.0100
2224.00,0.0101
2223.00,0.0102
2222.00,0.0102
2221.00,0.0101
2220.00,0.0100
2219.00,0.0099
2218.00,0.0097
2217.00,0.0095
2216.00,0.0093
2215.00,0.0093
2214.00,0.0093
2213.00,0.0095
2212.00,0.0097
2211.00,0.0099
2210.00,0.0100
2209.00,0.0101
2208.00,0.0101
2207.00,0.0101
2206.00,0.0101
2205.00,0.0100
2204.00,0.0100
2203.00,0.0099
2202.00,0.0098
2201.00,0.0097
2200.00,0.0096
2199.00,0.0096
2198.00,0.0097
2197.00,0.0099
2196.00,0.0100
2195.00,0.0101
2194.00,0.0100
2193.00,0.0100
2192.00,0.0101
2191.00,0.0102
2190.00,0.0102
2189.00,0.0103
2188.00,0.0103
2187.00,0.0102
2186.00,0.0101
2185.00,0.0100
2184.00,0.0098
2183.00,0.0096
2182.00,0.0094
2181.00,0.0092
2180.00,0.0092
2179.00,0.0092
2178.00,0.0093
2177.00,0.0093
2176.00,0.0092
2175.00,0.0089
2174.00,0.0086
2173.00,0.0085
2172.00,0.0086
2171.00,0.0090
2170.00,0.0094
2169.00,0.0097
2168.00,0.0100
2167.00,0.0100
2166.00,0.0100
2165.00,0.0101
2164.00,0.0104
2163.00,0.0108
2162.00,0.0108
2161.00,0.0102
2160.00,0.0090
2159.00,0.0073
2158.00,0.0059
2157.00,0.0051
2156.00,0.0049
2155.00,0.0050
2154.00,0.0052
2153.00,0.0056
2152.00,0.0061
2151.00,0.0064
2150.00,0.0066
2149.00,0.0067
2148.00,0.0067
2147.00,0.0068
2146.00,0.0070
2145.00,0.0073
2144.00,0.0075
2143.00,0.0075
2142.00,0.0076
2141.00,0.0077
2140.00,0.0079
2139.00,0.0080
2138.00,0.0080
2137.00,0.0080
2136.00,0.0080
2135.00,0.0079
2134.00,0.0077
2133.00,0.0077
2132.00,0.0079
2131.00,0.0081
2130.00,0.0084
2129.00,0.0086
2128.00,0.0089
2127.00,0.0092
2126.00,0.0094
2125.00,0.0094
2124.00,0.0094
2123.00,0.0094
2122.00,0.0096
2121.00,0.0097
2120.00,0.0099
2119.00,0.0101
2118.00,0.0102
2117.00,0.0103
2116.00,0.0105
2115.00,0.0107
2114.00,0.0108
2113.00,0.0109
2112.00,0.0110
2111.00,0.0110
2110.00,0.0110
2109.00,0.0110
2108.00,0.0110
2107.00,0.0111
2106.00,0.0111
2105.00,0.0111
2104.00,0.0111
2103.00,0.0111
2102.00,0.0111
2101.00,0.0110
2100.00,0.0110
2099.00,0.0110
2098.00,0.0108
2097.00,0.0106
2096.00,0.0103
2095.00,0.0100
2094.00,0.0098
2093.00,0.0097
2092.00,0.0098
2091.00,0.0100
2090.00,0.0103
2089.00,0.0106
2088.00,0.0109
2087.00,0.0111
2086.00,0.0111
2085.00,0.0111
2084.00,0.0109
2083.00,0.0107
2082.00,0.0106
2081.00,0.0105
2080.00,0.0106
2079.00,0.0106
2078.00,0.0106
2077.00,0.0104
2076.00,0.0103
2075.00,0.0101
2074.00,0.0100
2073.00,0.0099
2072.00,0.0099
2071.00,0.0100
2070.00,0.0101
2069.00,0.0102
2068.00,0.0103
2067.00,0.0103
2066.00,0.0100
2065.00,0.0096
2064.00,0.0093
2063.00,0.0091
2062.00,0.0090
2061.00,0.0090
2060.00,0.0091
2059.00,0.0091
2058.00,0.0090
2057.00,0.0090
2056.00,0.0090
2055.00,0.0091
2054.00,0.0093
2053.00,0.0096
2052.00,0.0099
2051.00,0.0100
2050.00,0.0098
2049.00,0.0094
2048.00,0.0090
2047.00,0.0088
2046.00,0.0087
2045.00,0.0086
2044.00,0.0086
2043.00,0.0085
2042.00,0.0084
2041.00,0.0084
2040.00,0.0083
2039.00,0.0081
2038.00,0.0078
2037.00,0.0078
2036.00,0.0078
2035.00,0.0077
2034.00,0.0075
2033.00,0.0073
2032.00,0.0071
2031.00,0.0070
2030.00,0.0068
2029.00,0.0067
2028.00,0.0066
2027.00,0.0065
2026.00,0.0063
2025.00,0.0062
2024.00,0.0063
2023.00,0.0064
2022.00,0.0065
2021.00,0.0067
2020.00,0.0068
2019.00,0.0067
2018.00,0.0064
2017.00,0.0061
2016.00,0.0059
2015.00,0.0059
2014.00,0.0060
2013.00,0.0064
2012.00,0.0067
2011.00,0.0069
2010.00,0.0069
2009.00,0.0067
2008.00,0.0064
2007.00,0.0060
2006.00,0.0055
2005.00,0.0053
2004.00,0.0054
2003.00,0.0055
2002.00,0.0056
2001.00,0.0059
2000.00,0.0063
1999.00,0.0066
1998.00,0.0068
1997.00,0.0072
1996.00,0.0076
1995.00,0.0078
1994.00,0.0078
1993.00,0.0077
1992.00,0.0077
1991.00,0.0076
1990.00,0.0075
1989.00,0.0075
1988.00,0.0075
1987.00,0.0076
1986.00,0.0077
1985.00,0.0080
1984.00,0.0082
1983.00,0.0084
1982.00,0.0086
1981.00,0.0088
1980.00,0.0088
1979.00,0.0083
1978.00,0.0073
1977.00,0.0064
1976.00,0.0059
1975.00,0.0056
1974.00,0.0053
1973.00,0.0052
1972.00,0.0052
1971.00,0.0052
1970.00,0.0050
1969.00,0.0049
1968.00,0.0050
1967.00,0.0050
1966.00,0.0050
1965.00,0.0052
1964.00,0.0057
1963.00,0.0061
1962.00,0.0062
1961.00,0.0061
1960.00,0.0058
1959.00,0.0056
1958.00,0.0055
1957.00,0.0056
1956.00,0.0057
1955.00,0.0059
1954.00,0.0059
1953.00,0.0060
1952.00,0.0061
1951.00,0.0061
1950.00,0.0060
1949.00,0.0060
1948.00,0.0061
1947.00,0.0063
1946.00,0.0064
1945.00,0.0065
1944.00,0.0065
1943.00,0.0063
1942.00,0.0061
1941.00,0.0059
1940.00,0.0060
1939.00,0.0061
1938.00,0.0061
1937.00,0.0060
1936.00,0.0059
1935.00,0.0058
1934.00,0.0057
1933.00,0.0058
1932.00,0.0059
1931.00,0.0060
1930.00,0.0060
1929.00,0.0061
1928.00,0.0063
1927.00,0.0064
1926.00,0.0065
1925.00,0.0066
1924.00,0.0067
1923.00,0.0066
1922.00,0.0065
1921.00,0.0065
1920.00,0.0067
1919.00,0.0067
1918.00,0.0065
1917.00,0.0062
1916.00,0.0062
1915.00,0.0062
1914.00,0.0063
1913.00,0.0065
1912.00,0.0066
1911.00,0.0066
1910.00,0.0065
1909.00,0.0064
1908.00,0.0063
1907.00,0.0063
1906.00,0.0062
1905.00,0.0062
1904.00,0.0062
1903.00,0.0062
1902.00,0.0061
1901.00,0.0061
1900.00,0.0062
1899.00,0.0063
1898.00,0.0063
1897.00,0.0064
1896.00,0.0065
1895.00,0.0064
1894.00,0.0062
1893.00,0.0062
1892.00,0.0063
1891.00,0.0063
1890.00,0.0061
1889.00,0.0059
1888.00,0.0058
1887.00,0.0057
1886.00,0.0057
1885.00,0.0057
1884.00,0.0057
1883.00,0.0057
1882.00,0.0058
1881.00,0.0058
1880.00,0.0057
1879.00,0.0056
1878.00,0.0055
1877.00,0.0055
1876.00,0.0055
1875.00,0.0056
1874.00,0.0055
1873.00,0.0057
1872.00,0.0059
1871.00,0.0063
1870.00,0.0059
1869.00,0.0053
1868.00,0.0054
1867.00,0.0054
1866.00,0.0053
1865.00,0.0052
1864.00,0.0053
1863.00,0.0053
1862.00,0.0053
1861.00,0.0053
1860.00,0.0053
1859.00,0.0053
1858.00,0.0053
1857.00,0.0052
1856.00,0.0052
1855.00,0.0052
1854.00,0.0052
1853.00,0.0052
1852.00,0.0052
1851.00,0.0052
1850.00,0.0052
1849.00,0.0052
1848.00,0.0052
1847.00,0.0052
1846.00,0.0051
1845.00,0.0051
1844.00,0.0051
1843.00,0.0052
1842.00,0.0052
1841.00,0.0053
1840.00,0.0053
1839.00,0.0053
1838.00,0.0052
1837.00,0.0053
1836.00,0.0053
1835.00,0.0054
1834.00,0.0054
1833.00,0.0054
1832.00,0.0054
1831.00,0.0054
1830.00,0.0053
1829.00,0.0054
1828.00,0.0055
1827.00,0.0055
1826.00,0.0055
1825.00,0.0053
1824.00,0.0052
1823.00,0.0052
1822.00,0.0052
1821.00,0.0053
1820.00,0.0053
1819.00,0.0051
1818.00,0.0050
1817.00,0.0049
1816.00,0.0049
1815.00,0.0051
1814.00,0.0053
1813.00,0.0055
1812.00,0.0056
1811.00,0.0056
1810.00,0.0054
1809.00,0.0053
1808.00,0.0052
1807.00,0.0052
1806.00,0.0052
1805.00,0.0052
1804.00,0.0052
1803.00,0.0052
1802.00,0.0052
1801.00,0.0052
1800.00,0.0053
1799.00,0.0053
1798.00,0.0053
1797.00,0.0053
1796.00,0.0053
1795.00,0.0053
1794.00,0.0053
1793.00,0.0052
1792.00,0.0052
1791.00,0.0051
1790.00,0.0051
1789.00,0.0051
1788.00,0.0052
1787.00,0.0052
1786.00,0.0051
1785.00,0.0051
1784.00,0.0052
1783.00,0.0052
1782.00,0.0052
1781.00,0.0052
1780.00,0.0053
1779.00,0.0052
1778.00,0.0051
1777.00,0.0051
1776.00,0.0051
1775.00,0.0051
1774.00,0.0050
1773.00,0.0051
1772.00,0.0052
1771.00,0.0053
1770.00,0.0053
1769.00,0.0054
1768.00,0.0054
1767.00,0.0054
1766.00,0.0053
1765.00,0.0053
1764.00,0.0053
1763.00,0.0053
1762.00,0.0054
1761.00,0.0055
1760.00,0.0055
1759.00,0.0056
1758.00,0.0059
1757.00,0.0059
1756.00,0.0059
1755.00,0.0060
1754.00,0.0064
1753.00,0.0068
1752.00,0.0072
1751.00,0.0074
1750.00,0.0076
1749.00,0.0080
1748.00,0.0083
1747.00,0.0084
1746.00,0.0085
1745.00,0.0087
1744.00,0.0089
1743.00,0.0092
1742.00,0.0095
1741.00,0.0098
1740.00,0.0099
1739.00,0.0098
1738.00,0.0098
1737.00,0.0102
1736.00,0.0107
1735.00,0.0107
1734.00,0.0102
1733.00,0.0097
1732.00,0.0099
1731.00,0.0104
1730.00,0.0108
1729.00,0.0109
1728.00,0.0111
1727.00,0.0113
1726.00,0.0116
1725.00,0.0119
1724.00,0.0122
1723.00,0.0125
1722.00,0.0128
1721.00,0.0134
1720.00,0.0141
1719.00,0.0145
1718.00,0.0146
1717.00,0.0146
1716.00,0.0148
1715.00,0.0152
1714.00,0.0155
1713.00,0.0159
1712.00,0.0164
1711.00,0.0169
1710.00,0.0175
1709.00,0.0182
1708.00,0.0190
1707.00,0.0199
1706.00,0.0207
1705.00,0.0214
1704.00,0.0221
1703.00,0.0229
1702.00,0.0237
1701.00,0.0247
1700.00,0.0259
1699.00,0.0270
1698.00,0.0282
1697.00,0.0295
1696.00,0.0308
1695.00,0.0321
1694.00,0.0334
1693.00,0.0348
1692.00,0.0363
1691.00,0.0378
1690.00,0.0394
1689.00,0.0410
1688.00,0.0425
1687.00,0.0439
1686.00,0.0453
1685.00,0.0474
1684.00,0.0503
1683.00,0.0528
1682.00,0.0546
1681.00,0.0560
1680.00,0.0573
1679.00,0.0586
1678.00,0.0598
1677.00,0.0612
1676.00,0.0631
1675.00,0.0655
1674.00,0.0679
1673.00,0.0697
1672.00,0.0713
1671.00,0.0730
1670.00,0.0751
1669.00,0.0777
1668.00,0.0801
1667.00,0.0818
1666.00,0.0831
1665.00,0.0843
1664.00,0.0859
1663.00,0.0883
1662.00,0.0910
1661.00,0.0934
1660.00,0.0953
1659.00,0.0968
1658.00,0.0978
1657.00,0.0984
1656.00,0.0985
1655.00,0.0985
1654.00,0.1003
1653.00,0.1052
1652.00,0.1101
1651.00,0.1121
1650.00,0.1120
1649.00,0.1111
1648.00,0.1109
1647.00,0.1120
1646.00,0.1139
1645.00,0.1153
1644.00,0.1157
1643.00,0.1155
1642.00,0.1150
1641.00,0.1145
1640.00,0.1142
1639.00,0.1137
1638.00,0.1130
1637.00,0.1127
1636.00,0.1136
1635.00,0.1151
1634.00,0.1157
1633.00,0.1150
1632.00,0.1135
1631.00,0.1116
1630.00,0.1098
1629.00,0.1083
1628.00,0.1072
1627.00,0.1061
1626.00,0.1046
1625.00,0.1029
1624.00,0.1011
1623.00,0.0996
1622.00,0.0980
1621.00,0.0962
1620.00,0.0940
1619.00,0.0914
1618.00,0.0889
1617.00,0.0868
1616.00,0.0851
1615.00,0.0836
1614.00,0.0817
1613.00,0.0794
1612.00,0.0770
1611.00,0.0747
1610.00,0.0726
1609.00,0.0706
1608.00,0.0686
1607.00,0.0667
1606.00,0.0649
1605.00,0.0630
1604.00,0.0612
1603.00,0.0595
1602.00,0.0579
1601.00,0.0563
1600.00,0.0547
1599.00,0.0532
1598.00,0.0518
1597.00,0.0505
1596.00,0.0492
1595.00,0.0479
1594.00,0.0468
1593.00,0.0457
1592.00,0.0445
1591.00,0.0435
1590.00,0.0425
1589.00,0.0417
1588.00,0.0408
1587.00,0.0400
1586.00,0.0394
1585.00,0.0387
1584.00,0.0381
1583.00,0.0376
1582.00,0.0372
1581.00,0.0368
1580.00,0.0365
1579.00,0.0362
1578.00,0.0359
1577.00,0.0356
1576.00,0.0354
1575.00,0.0353
1574.00,0.0354
1573.00,0.0355
1572.00,0.0354
1571.00,0.0354
1570.00,0.0355
1569.00,0.0356
1568.00,0.0357
1567.00,0.0358
1566.00,0.0361
1565.00,0.0363
1564.00,0.0365
1563.00,0.0366
1562.00,0.0366
1561.00,0.0367
1560.00,0.0372
1559.00,0.0387
1558.00,0.0401
1557.00,0.0408
1556.00,0.0410
1555.00,0.0411
1554.00,0.0412
1553.00,0.0413
1552.00,0.0415
1551.00,0.0417
1550.00,0.0419
1549.00,0.0420
1548.00,0.0419
1547.00,0.0418
1546.00,0.0416
1545.00,0.0415
1544.00,0.0415
1543.00,0.0415
1542.00,0.0415
1541.00,0.0414
1540.00,0.0409
1539.00,0.0400
1538.00,0.0392
1537.00,0.0385
1536.00,0.0379
1535.00,0.0372
1534.00,0.0364
1533.00,0.0355
1532.00,0.0346
1531.00,0.0339
1530.00,0.0332
1529.00,0.0325
1528.00,0.0318
1527.00,0.0311
1526.00,0.0304
1525.00,0.0298
1524.00,0.0293
1523.00,0.0287
1522.00,0.0279
1521.00,0.0270
1520.00,0.0264
1519.00,0.0260
1518.00,0.0256
1517.00,0.0248
1516.00,0.0237
1515.00,0.0227
1514.00,0.0217
1513.00,0.0208
1512.00,0.0199
1511.00,0.0192
1510.00,0.0186
1509.00,0.0181
1508.00,0.0176
1507.00,0.0166
1506.00,0.0151
1505.00,0.0138
1504.00,0.0131
1503.00,0.0128
1502.00,0.0124
1501.00,0.0119
1500.00,0.0114
1499.00,0.0109
1498.00,0.0103
1497.00,0.0096
1496.00,0.0090
1495.00,0.0085
1494.00,0.0084
1493.00,0.0084
1492.00,0.0084
1491.00,0.0083
1490.00,0.0081
1489.00,0.0079
1488.00,0.0077
1487.00,0.0075
1486.00,0.0073
1485.00,0.0072
1484.00,0.0073
1483.00,0.0075
1482.00,0.0077
1481.00,0.0080
1480.00,0.0083
1479.00,0.0086
1478.00,0.0090
1477.00,0.0095
1476.00,0.0101
1475.00,0.0107
1474.00,0.0112
1473.00,0.0118
1472.00,0.0122
1471.00,0.0126
1470.00,0.0129
1469.00,0.0132
1468.00,0.0135
1467.00,0.0137
1466.00,0.0139
1465.00,0.0141
1464.00,0.0143
1463.00,0.0145
1462.00,0.0148
1461.00,0.0152
1460.00,0.0156
1459.00,0.0159
1458.00,0.0161
1457.00,0.0162
1456.00,0.0164
1455.00,0.0167
1454.00,0.0170
1453.00,0.0171
1452.00,0.0171
1451.00,0.0170
1450.00,0.0169
1449.00,0.0169
1448.00,0.0170
1447.00,0.0170
1446.00,0.0170
1445.00,0.0170
1444.00,0.0169
1443.00,0.0169
1442.00,0.0169
1441.00,0.0170
1440.00,0.0170
1439.00,0.0170
1438.00,0.0170
1437.00,0.0170
1436.00,0.0173
1435.00,0.0176
1434.00,0.0179
1433.00,0.0182
1432.00,0.0183
1431.00,0.0185
1430.00,0.0187
1429.00,0.0189
1428.00,0.0191
1427.00,0.0193
1426.00,0.0194
1425.00,0.0196
1424.00,0.0199
1423.00,0.0200
1422.00,0.0201
1421.00,0.0201
1420.00,0.0201
1419.00,0.0202
1418.00,0.0205
1417.00,0.0207
1416.00,0.0207
1415.00,0.0207
1414.00,0.0205
1413.00,0.0202
1412.00,0.0201
1411.00,0.0199
1410.00,0.0197
1409.00,0.0195
1408.00,0.0193
1407.00,0.0191
1406.00,0.0189
1405.00,0.0187
1404.00,0.0184
1403.00,0.0181
1402.00,0.0178
1401.00,0.0174
1400.00,0.0171
1399.00,0.0167
1398.00,0.0164
1397.00,0.0160
1396.00,0.0157
1395.00,0.0153
1394.00,0.0150
1393.00,0.0149
1392.00,0.0148
1391.00,0.0148
1390.00,0.0148
1389.00,0.0148
1388.00,0.0150
1387.00,0.0154
1386.00,0.0159
1385.00,0.0164
1384.00,0.0168
1383.00,0.0172
1382.00,0.0175
1381.00,0.0178
1380.00,0.0180
1379.00,0.0181
1378.00,0.0183
1377.00,0.0183
1376.00,0.0183
1375.00,0.0182
1374.00,0.0179
1373.00,0.0176
1372.00,0.0172
1371.00,0.0168
1370.00,0.0164
1369.00,0.0159
1368.00,0.0155
1367.00,0.0151
1366.00,0.0147
1365.00,0.0143
1364.00,0.0139
1363.00,0.0136
1362.00,0.0133
1361.00,0.0132
1360.00,0.0131
1359.00,0.0130
1358.00,0.0129
1357.00,0.0128
1356.00,0.0127
1355.00,0.0125
1354.00,0.0123
1353.00,0.0121
1352.00,0.0119
1351.00,0.0116
1350.00,0.0112
1349.00,0.0109
1348.00,0.0104
1347.00,0.0100
1346.00,0.0096
1345.00,0.0092
1344.00,0.0088
1343.00,0.0085
1342.00,0.0082
1341.00,0.0079
1340.00,0.0076
1339.00,0.0074
1338.00,0.0071
1337.00,0.0069
1336.00,0.0067
1335.00,0.0064
1334.00,0.0062
1333.00,0.0059
1332.00,0.0057
1331.00,0.0055
1330.00,0.0054
1329.00,0.0053
1328.00,0.0053
1327.00,0.0053
1326.00,0.0053
1325.00,0.0053
1324.00,0.0053
1323.00,0.0052
1322.00,0.0052
1321.00,0.0052
1320.00,0.0052
1319.00,0.0052
1318.00,0.0052
1317.00,0.0052
1316.00,0.0052
1315.00,0.0052
1314.00,0.0052
1313.00,0.0051
1312.00,0.0051
1311.00,0.0051
1310.00,0.0051
1309.00,0.0052
1308.00,0.0053
1307.00,0.0054
1306.00,0.0056
1305.00,0.0058
1304.00,0.0061
1303.00,0.0065
1302.00,0.0068
1301.00,0.0072
1300.00,0.0077
1299.00,0.0083
1298.00,0.0090
1297.00,0.0097
1296.00,0.0106
1295.00,0.0115
1294.00,0.0124
1293.00,0.0135
1292.00,0.0146
1291.00,0.0158
1290.00,0.0171
1289.00,0.0184
1288.00,0.0199
1287.00,0.0215
1286.00,0.0231
1285.00,0.0249
1284.00,0.0267
1283.00,0.0285
1282.00,0.0305
1281.00,0.0325
1280.00,0.0346
1279.00,0.0368
1278.00,0.0390
1277.00,0.0412
1276.00,0.0436
1275.00,0.0459
1274.00,0.0484
1273.00,0.0508
1272.00,0.0533
1271.00,0.0557
1270.00,0.0581
1269.00,0.0604
1268.00,0.0626
1267.00,0.0647
1266.00,0.0668
1265.00,0.0687
1264.00,0.0706
1263.00,0.0724
1262.00,0.0741
1261.00,0.0757
1260.00,0.0773
1259.00,0.0787
1258.00,0.0800
1257.00,0.0812
1256.00,0.0823
1255.00,0.0833
1254.00,0.0842
1253.00,0.0850
1252.00,0.0858
1251.00,0.0865
1250.00,0.0871
1249.00,0.0877
1248.00,0.0883
1247.00,0.0888
1246.00,0.0893
1245.00,0.0898
1244.00,0.0903
1243.00,0.0909
1242.00,0.0914
1241.00,0.0920
1240.00,0.0927
1239.00,0.0935
1238.00,0.0944
1237.00,0.0953
1236.00,0.0963
1235.00,0.0974
1234.00,0.0984
1233.00,0.0994
1232.00,0.1005
1231.00,0.1014
1230.00,0.1023
1229.00,0.1032
1228.00,0.1041
1227.00,0.1049
1226.00,0.1056
1225.00,0.1062
1224.00,0.1067
1223.00,0.1071
1222.00,0.1073
1221.00,0.1074
1220.00,0.1073
1219.00,0.1071
1218.00,0.1067
1217.00,0.1062
1216.00,0.1056
1215.00,0.1047
1214.00,0.1036
1213.00,0.1023
1212.00,0.1008
1211.00,0.0992
1210.00,0.0975
1209.00,0.0956
1208.00,0.0936
1207.00,0.0915
1206.00,0.0893
1205.00,0.0871
1204.00,0.0849
1203.00,0.0828
1202.00,0.0807
1201.00,0.0787
1200.00,0.0768
1199.00,0.0751
1198.00,0.0737
1197.00,0.0725
1196.00,0.0715
1195.00,0.0707
1194.00,0.0699
1193.00,0.0691
1192.00,0.0683
1191.00,0.0673
1190.00,0.0661
1189.00,0.0646
1188.00,0.0631
1187.00,0.0615
1186.00,0.0598
1185.00,0.0583
1184.00,0.0569
1183.00,0.0557
1182.00,0.0548
1181.00,0.0542
1180.00,0.0538
1179.00,0.0537
1178.00,0.0537
1177.00,0.0539
1176.00,0.0544
1175.00,0.0550
1174.00,0.0559
1173.00,0.0569
1172.00,0.0582
1171.00,0.0596
1170.00,0.0612
1169.00,0.0630
1168.00,0.0650
1167.00,0.0671
1166.00,0.0692
1165.00,0.0713
1164.00,0.0735
1163.00,0.0756
1162.00,0.0775
1161.00,0.0793
1160.00,0.0809
1159.00,0.0822
1158.00,0.0832
1157.00,0.0840
1156.00,0.0845
1155.00,0.0847
1154.00,0.0845
1153.00,0.0841
1152.00,0.0834
1151.00,0.0823
1150.00,0.0810
1149.00,0.0794
1148.00,0.0777
1147.00,0.0757
1146.00,0.0737
1145.00,0.0716
1144.00,0.0694
1143.00,0.0674
1142.00,0.0655
1141.00,0.0638
1140.00,0.0624
1139.00,0.0613
1138.00,0.0607
1137.00,0.0605
1136.00,0.0608
1135.00,0.0616
1134.00,0.0627
1133.00,0.0642
1132.00,0.0659
1131.00,0.0677
1130.00,0.0693
1129.00,0.0708
1128.00,0.0720
1127.00,0.0729
1126.00,0.0733
1125.00,0.0733
1124.00,0.0729
1123.00,0.0721
1122.00,0.0711
1121.00,0.0700
1120.00,0.0690
1119.00,0.0679
1118.00,0.0669
1117.00,0.0660
1116.00,0.0651
1115.00,0.0642
1114.00,0.0635
1113.00,0.0629
1112.00,0.0623
1111.00,0.0620
1110.00,0.0617
1109.00,0.0617
1108.00,0.0620
1107.00,0.0624
1106.00,0.0632
1105.00,0.0642
1104.00,0.0655
1103.00,0.0671
1102.00,0.0689
1101.00,0.0710
1100.00,0.0733
1099.00,0.0756
1098.00,0.0779
1097.00,0.0803
1096.00,0.0827
1095.00,0.0849
1094.00,0.0871
1093.00,0.0893
1092.00,0.0915
1091.00,0.0937
1090.00,0.0960
1089.00,0.0984
1088.00,0.1012
1087.00,0.1041
1086.00,0.1072
1085.00,0.1104
1084.00,0.1138
1083.00,0.1173
1082.00,0.1208
1081.00,0.1245
1080.00,0.1284
1079.00,0.1324
1078.00,0.1363
1077.00,0.1402
1076.00,0.1440
1075.00,0.1475
1074.00,0.1507
1073.00,0.1538
1072.00,0.1567
1071.00,0.1593
1070.00,0.1617
1069.00,0.1637
1068.00,0.1653
1067.00,0.1662
1066.00,0.1664
1065.00,0.1661
1064.00,0.1651
1063.00,0.1635
1062.00,0.1615
1061.00,0.1594
1060.00,0.1572
1059.00,0.1553
1058.00,0.1537
1057.00,0.1526
1056.00,0.1520
1055.00,0.1518
1054.00,0.1520
1053.00,0.1526
1052.00,0.1538
1051.00,0.1554
1050.00,0.1573
1049.00,0.1595
1048.00,0.1619
1047.00,0.1644
1046.00,0.1670
1045.00,0.1695
1044.00,0.1720
1043.00,0.1741
1042.00,0.1759
1041.00,0.1773
1040.00,0.1784
1039.00,0.1789
1038.00,0.1790
1037.00,0.1788
1036.00,0.1782
1035.00,0.1774
1034.00,0.1766
1033.00,0.1758
1032.00,0.1751
1031.00,0.1742
1030.00,0.1731
1029.00,0.1718
1028.00,0.1700
1027.00,0.1677
1026.00,0.1648
1025.00,0.1612
1024.00,0.1571
1023.00,0.1524
1022.00,0.1475
1021.00,0.1426
1020.00,0.1376
1019.00,0.1327
1018.00,0.1279
1017.00,0.1234
1016.00,0.1193
1015.00,0.1154
1014.00,0.1120
1013.00,0.1091
1012.00,0.1067
1011.00,0.1048
1010.00,0.1032
1009.00,0.1018
1008.00,0.1006
1007.00,0.0995
1006.00,0.0983
1005.00,0.0970
1004.00,0.0951
1003.00,0.0926
1002.00,0.0894
1001.00,0.0857
1000.00,0.0816
999.00,0.0773
998.00,0.0730
997.00,0.0691
996.00,0.0656
995.00,0.0627
994.00,0.0603
993.00,0.0584
992.00,0.0569
991.00,0.0556
990.00,0.0543
989.00,0.0531
988.00,0.0518
987.00,0.0503
986.00,0.0486
985.00,0.0469
984.00,0.0454
983.00,0.0441
982.00,0.0431
981.00,0.0424
980.00,0.0420
979.00,0.0418
978.00,0.0416
977.00,0.0416
976.00,0.0415
975.00,0.0415
974.00,0.0414
973.00,0.0412
972.00,0.0409
971.00,0.0404
970.00,0.0396
969.00,0.0383
968.00,0.0364
967.00,0.0339
966.00,0.0309
965.00,0.0275
964.00,0.0239
963.00,0.0203
962.00,0.0170
961.00,0.0140
960.00,0.0114
959.00,0.0092
958.00,0.0074
957.00,0.0060
956.00,0.0050
955.00,0.0044
954.00,0.0040
953.00,0.0040
952.00,0.0042
951.00,0.0047
950.00,0.0054
949.00,0.0063
948.00,0.0075
947.00,0.0090
946.00,0.0109
945.00,0.0132
944.00,0.0159
943.00,0.0190
942.00,0.0226
941.00,0.0267
940.00,0.0312
939.00,0.0361
938.00,0.0414
937.00,0.0469
936.00,0.0525
935.00,0.0578
934.00,0.0627
933.00,0.0671
932.00,0.0710
931.00,0.0741
930.00,0.0766
929.00,0.0784
928.00,0.0796
927.00,0.0801
926.00,0.0800
925.00,0.0794
924.00,0.0783
923.00,0.0768
922.00,0.0750
921.00,0.0729
920.00,0.0706
919.00,0.0680
918.00,0.0651
917.00,0.0621
916.00,0.0588
915.00,0.0554
914.00,0.0519
913.00,0.0485
912.00,0.0451
911.00,0.0419
910.00,0.0388
909.00,0.0360
908.00,0.0336
907.00,0.0315
906.00,0.0298
905.00,0.0283
904.00,0.0271
903.00,0.0261
902.00,0.0253
901.00,0.0247
900.00,0.0242
899.00,0.0239
898.00,0.0237
897.00,0.0236
896.00,0.0236
895.00,0.0237
894.00,0.0239
893.00,0.0240
892.00,0.0240
891.00,0.0239
890.00,0.0235
889.00,0.0229
888.00,0.0221
887.00,0.0209
886.00,0.0193
885.00,0.0174
884.00,0.0152
883.00,0.0128
882.00,0.0104
881.00,0.0083
880.00,0.0066
879.00,0.0052
878.00,0.0044
877.00,0.0040
876.00,0.0041
875.00,0.0045
874.00,0.0049
873.00,0.0054
872.00,0.0058
871.00,0.0061
870.00,0.0062
869.00,0.0062
868.00,0.0062
867.00,0.0064
866.00,0.0068
865.00,0.0075
864.00,0.0085
863.00,0.0098
862.00,0.0115
861.00,0.0134
860.00,0.0155
859.00,0.0178
858.00,0.0203
857.00,0.0230
856.00,0.0260
855.00,0.0292
854.00,0.0326
853.00,0.0359
852.00,0.0392
851.00,0.0421
850.00,0.0447
849.00,0.0468
848.00,0.0484
847.00,0.0493
846.00,0.0495
845.00,0.0488
844.00,0.0475
843.00,0.0455
842.00,0.0429
841.00,0.0399
840.00,0.0368
839.00,0.0336
838.00,0.0303
837.00,0.0272
836.00,0.0243
835.00,0.0216
834.00,0.0190
833.00,0.0166
832.00,0.0146
831.00,0.0128
830.00,0.0113
829.00,0.0099
828.00,0.0088
827.00,0.0079
826.00,0.0071
825.00,0.0065
824.00,0.0060
823.00,0.0056
822.00,0.0053
821.00,0.0051
820.00,0.0049
819.00,0.0047
818.00,0.0046
817.00,0.0047
816.00,0.0049
815.00,0.0052
814.00,0.0055
813.00,0.0058
812.00,0.0062
811.00,0.0068
810.00,0.0074
809.00,0.0081
808.00,0.0087
807.00,0.0092
806.00,0.0095
805.00,0.0097
804.00,0.0099
803.00,0.0101
802.00,0.0102
801.00,0.0101
800.00,0.0099
799.00,0.0097
798.00,0.0093
797.00,0.0090
796.00,0.0085
795.00,0.0080
794.00,0.0075
793.00,0.0070
792.00,0.0066
791.00,0.0062
790.00,0.0058
789.00,0.0054
788.00,0.0052
787.00,0.0050
786.00,0.0049
785.00,0.0049
784.00,0.0049
783.00,0.0050
782.00,0.0052
781.00,0.0056
780.00,0.0062
779.00,0.0069
778.00,0.0077
777.00,0.0086
776.00,0.0095
775.00,0.0102
774.00,0.0108
773.00,0.0112
772.00,0.0113
771.00,0.0111
770.00,0.0106
769.00,0.0100
768.00,0.0092
767.00,0.0083
766.00,0.0075
765.00,0.0067
764.00,0.0060
763.00,0.0055
762.00,0.0050
761.00,0.0047
760.00,0.0046
759.00,0.0045
758.00,0.0045
757.00,0.0046
756.00,0.0050
755.00,0.0055
754.00,0.0063
753.00,0.0074
752.00,0.0087
751.00,0.0102
750.00,0.0119
749.00,0.0138
748.00,0.0157
747.00,0.0175
746.00,0.0191
745.00,0.0206
744.00,0.0220
743.00,0.0233
742.00,0.0244
741.00,0.0254
740.00,0.0264
739.00,0.0272
738.00,0.0279
737.00,0.0284
736.00,0.0287
735.00,0.0288
734.00,0.0288
733.00,0.0288
732.00,0.0286
731.00,0.0283
730.00,0.0279
729.00,0.0277
728.00,0.0277
727.00,0.0277
726.00,0.0276
725.00,0.0275
724.00,0.0273
723.00,0.0270
722.00,0.0266
721.00,0.0261
720.00,0.0258
719.00,0.0255
718.00,0.0254
717.00,0.0254
716.00,0.0256
715.00,0.0259
714.00,0.0264
713.00,0.0272
712.00,0.0282
711.00,0.0293
710.00,0.0306
709.00,0.0321
708.00,0.0336
707.00,0.0351
706.00,0.0365
705.00,0.0377
704.00,0.0389
703.00,0.0398
702.00,0.0403
701.00,0.0404
700.00,0.0401
699.00,0.0395
698.00,0.0387
697.00,0.0376
696.00,0.0364
695.00,0.0350
694.00,0.0335
693.00,0.0319
692.00,0.0302
691.00,0.0284
690.00,0.0266
689.00,0.0248
688.00,0.0233
687.00,0.0219
686.00,0.0206
685.00,0.0195
684.00,0.0186
683.00,0.0177
682.00,0.0168
681.00,0.0161
680.00,0.0155
679.00,0.0151
678.00,0.0149
677.00,0.0150
676.00,0.0153
675.00,0.0156
674.00,0.0160
673.00,0.0162
672.00,0.0160
671.00,0.0151
670.00,0.0139
669.00,0.0140
668.00,0.0166
667.00,0.0195
666.00,0.0204
665.00,0.0195
664.00,0.0184
663.00,0.0179
662.00,0.0178
661.00,0.0179
660.00,0.0181
659.00,0.0183
658.00,0.0186
657.00,0.0187
656.00,0.0187
655.00,0.0186
654.00,0.0183
653.00,0.0180
652.00,0.0177
651.00,0.0174
650.00,0.0170
649.00,0.0164
648.00,0.0158
647.00,0.0151
646.00,0.0143
645.00,0.0136
644.00,0.0129
643.00,0.0124
642.00,0.0118
641.00,0.0113
640.00,0.0110
639.00,0.0107
638.00,0.0106
637.00,0.0105
636.00,0.0106
635.00,0.0108
634.00,0.0112
633.00,0.0115
632.00,0.0121
631.00,0.0127
630.00,0.0133
629.00,0.0138
628.00,0.0144
627.00,0.0151
626.00,0.0159
625.00,0.0170
624.00,0.0184
623.00,0.0197
622.00,0.0207
621.00,0.0214
620.00,0.0220
619.00,0.0228
618.00,0.0238
617.00,0.0249
616.00,0.0260
615.00,0.0270
614.00,0.0280
613.00,0.0290
612.00,0.0304
611.00,0.0320
610.00,0.0334
609.00,0.0345
608.00,0.0355
607.00,0.0364
606.00,0.0372
605.00,0.0381
604.00,0.0391
603.00,0.0399
602.00,0.0403
601.00,0.0406
600.00,0.0411
599.00,0.0416
598.00,0.0419
597.00,0.0418
596.00,0.0416
595.00,0.0410
594.00,0.0402
593.00,0.0395
592.00,0.0390
591.00,0.0389
590.00,0.0388
589.00,0.0387
588.00,0.0386
587.00,0.0388
586.00,0.0393
585.00,0.0402
584.00,0.0413
583.00,0.0424
582.00,0.0430
581.00,0.0436
580.00,0.0443
579.00,0.0451
578.00,0.0457
577.00,0.0461
576.00,0.0465
575.00,0.0467
574.00,0.0464
573.00,0.0457
572.00,0.0448
571.00,0.0440
570.00,0.0431
569.00,0.0424
568.00,0.0418
567.00,0.0410
566.00,0.0402
565.00,0.0394
564.00,0.0389
563.00,0.0384
562.00,0.0378
561.00,0.0370
560.00,0.0364
559.00,0.0360
558.00,0.0355
557.00,0.0349
556.00,0.0345
555.00,0.0340
554.00,0.0336
553.00,0.0332
552.00,0.0330
551.00,0.0330
550.00,0.0329
549.00,0.0330
548.00,0.0331
547.00,0.0331
546.00,0.0331
545.00,0.0332
544.00,0.0334
543.00,0.0336
542.00,0.0334
541.00,0.0332
540.00,0.0334
539.00,0.0336
538.00,0.0333
537.00,0.0326
536.00,0.0319
535.00,0.0313
534.00,0.0307
533.00,0.0298
532.00,0.0291
531.00,0.0287
530.00,0.0284
529.00,0.0283
528.00,0.0281
527.00,0.0276
526.00,0.0271
525.00,0.0270
524.00,0.0276
523.00,0.0284
522.00,0.0289
521.00,0.0291
520.00,0.0290
519.00,0.0288
518.00,0.0283
517.00,0.0278
516.00,0.0271
515.00,0.0264
514.00,0.0256
513.00,0.0253
512.00,0.0251
511.00,0.0247
510.00,0.0237
509.00,0.0226
508.00,0.0218
507.00,0.0213
506.00,0.0208
505.00,0.0205
504.00,0.0202
503.00,0.0198
502.00,0.0190
501.00,0.0182
500.00,0.0178
499.00,0.0174
498.00,0.0168
497.00,0.0162
496.00,0.0160
495.00,0.0160
494.00,0.0160
493.00,0.0163
492.00,0.0169
491.00,0.0174
490.00,0.0174
489.00,0.0168
488.00,0.0158
487.00,0.0146
486.00,0.0134
485.00,0.0130
484.00,0.0135
483.00,0.0143
482.00,0.0147
481.00,0.0146
480.00,0.0143
479.00,0.0137
478.00,0.0131
477.00,0.0128
476.00,0.0129
475.00,0.0129
474.00,0.0125
473.00,0.0124
472.00,0.0130
471.00,0.0138
470.00,0.0139
469.00,0.0139
468.00,0.0144
467.00,0.0149
466.00,0.0145
465.00,0.0135
464.00,0.0127
463.00,0.0122
462.00,0.0117
461.00,0.0110
460.00,0.0106
459.00,0.0105
458.00,0.0102
457.00,0.0094
456.00,0.0080
455.00,0.0060
454.00,0.0043
453.00,0.0038
452.00,0.0046
451.00,0.0053
450.00,0.0050
