Created as New Dataset,Sample 006 By Administrator Date Monday, June 09 2025
cm-1,A
4000.00,0.0031
3999.00,0.0031
3998.00,0.0032
3997.00,0.0032
3996.00,0.0032
3995.00,0.0031
3994.00,0.0031
3993.00,0.0031
3992.00,0.0031
3991.00,0.0031
3990.00,0.0032
3989.00,0.0032
3988.00,0.0033
3987.00,0.0033
3986.00,0.0033
3985.00,0.0033
3984.00,0.0033
3983.00,0.0032
3982.00,0.0032
3981.00,0.0032
3980.00,0.0032
3979.00,0.0033
3978.00,0.0033
3977.00,0.0034
3976.00,0.0034
3975.00,0.0034
3974.00,0.0034
3973.00,0.0033
3972.00,0.0033
3971.00,0.0033
3970.00,0.0033
3969.00,0.0033
3968.00,0.0033
3967.00,0.0033
3966.00,0.0033
3965.00,0.0033
3964.00,0.0034
3963.00,0.0034
3962.00,0.0034
3961.00,0.0034
3960.00,0.0034
3959.00,0.0034
3958.00,0.0035
3957.00,0.0035
3956.00,0.0035
3955.00,0.0035
3954.00,0.0035
3953.00,0.0035
3952.00,0.0035
3951.00,0.0035
3950.00,0.0036
3949.00,0.0036
3948.00,0.0036
3947.00,0.0037
3946.00,0.0037
3945.00,0.0037
3944.00,0.0037
3943.00,0.0036
3942.00,0.0034
3941.00,0.0034
3940.00,0.0034
3939.00,0.0034
3938.00,0.0034
3937.00,0.0035
3936.00,0.0035
3935.00,0.0036
3934.00,0.0037
3933.00,0.0038
3932.00,0.0038
3931.00,0.0037
3930.00,0.0036
3929.00,0.0036
3928.00,0.0036
3927.00,0.0036
3926.00,0.0036
3925.00,0.0035
3924.00,0.0035
3923.00,0.0035
3922.00,0.0037
3921.00,0.0038
3920.00,0.0039
3919.00,0.0039
3918.00,0.0039
3917.00,0.0038
3916.00,0.0037
3915.00,0.0036
3914.00,0.0036
3913.00,0.0035
3912.00,0.0034
3911.00,0.0033
3910.00,0.0033
3909.00,0.0033
3908.00,0.0034
3907.00,0.0036
3906.00,0.0038
3905.00,0.0040
3904.00,0.0042
3903.00,0.0045
3902.00,0.0047
3901.00,0.0047
3900.00,0.0046
3899.00,0.0045
3898.00,0.0043
3897.00,0.0041
3896.00,0.0040
3895.00,0.0040
3894.00,0.0039
3893.00,0.0039
3892.00,0.0038
3891.00,0.0038
3890.00,0.0038
3889.00,0.0039
3888.00,0.0041
3887.00,0.0042
3886.00,0.0043
3885.00,0.0042
3884.00,0.0042
3883.00,0.0042
3882.00,0.0042
3881.00,0.0041
3880.00,0.0040
3879.00,0.0039
3878.00,0.0039
3877.00,0.0039
3876.00,0.0040
3875.00,0.0040
3874.00,0.0040
3873.00,0.0040
3872.00,0.0041
3871.00,0.0043
3870.00,0.0043
3869.00,0.0042
3868.00,0.0042
3867.00,0.0043
3866.00,0.0044
3865.00,0.0044
3864.00,0.0043
3863.00,0.0042
3862.00,0.0041
3861.00,0.0041
3860.00,0.0041
3859.00,0.0040
3858.00,0.0038
3857.00,0.0036
3856.00,0.0037
3855.00,0.0039
3854.00,0.0041
3853.00,0.0043
3852.00,0.0044
3851.00,0.0044
3850.00,0.0044
3849.00,0.0043
3848.00,0.0043
3847.00,0.0042
3846.00,0.0041
3845.00,0.0041
3844.00,0.0041
3843.00,0.0041
3842.00,0.0042
3841.00,0.0043
3840.00,0.0043
3839.00,0.0044
3838.00,0.0044
3837.00,0.0044
3836.00,0.0044
3835.00,0.0044
3834.00,0.0044
3833.00,0.0044
3832.00,0.0043
3831.00,0.0043
3830.00,0.0042
3829.00,0.0041
3828.00,0.0041
3827.00,0.0040
3826.00,0.0038
3825.00,0.0038
3824.00,0.0039
3823.00,0.0042
3822.00,0.0044
3821.00,0.0044
3820.00,0.0044
3819.00,0.0044
3818.00,0.0045
3817.00,0.0045
3816.00,0.0044
3815.00,0.0042
3814.00,0.0041
3813.00,0.0039
3812.00,0.0039
3811.00,0.0038
3810.00,0.0037
3809.00,0.0037
3808.00,0.0037
3807.00,0.0038
3806.00,0.0039
3805.00,0.0040
3804.00,0.0042
3803.00,0.0044
3802.00,0.0045
3801.00,0.0044
3800.00,0.0044
3799.00,0.0044
3798.00,0.0044
3797.00,0.0044
3796.00,0.0042
3795.00,0.0040
3794.00,0.0039
3793.00,0.0038
3792.00,0.0038
3791.00,0.0037
3790.00,0.0036
3789.00,0.0036
3788.00,0.0036
3787.00,0.0037
3786.00,0.0037
3785.00,0.0037
3784.00,0.0037
3783.00,0.0038
3782.00,0.0040
3781.00,0.0040
3780.00,0.0040
3779.00,0.0039
3778.00,0.0038
3777.00,0.0038
3776.00,0.0038
3775.00,0.0039
3774.00,0.0039
3773.00,0.0039
3772.00,0.0040
3771.00,0.0041
3770.00,0.0042
3769.00,0.0043
3768.00,0.0044
3767.00,0.0045
3766.00,0.0045
3765.00,0.0045
3764.00,0.0045
3763.00,0.0045
3762.00,0.0047
3761.00,0.0048
3760.00,0.0048
3759.00,0.0048
3758.00,0.0048
3757.00,0.0048
3756.00,0.0049
3755.00,0.0051
3754.00,0.0052
3753.00,0.0054
3752.00,0.0055
3751.00,0.0057
3750.00,0.0059
3749.00,0.0062
3748.00,0.0063
3747.00,0.0064
3746.00,0.0065
3745.00,0.0066
3744.00,0.0065
3743.00,0.0063
3742.00,0.0062
3741.00,0.0061
3740.00,0.0062
3739.00,0.0063
3738.00,0.0065
3737.00,0.0067
3736.00,0.0067
3735.00,0.0066
3734.00,0.0065
3733.00,0.0064
3732.00,0.0064
3731.00,0.0063
3730.00,0.0062
3729.00,0.0062
3728.00,0.0062
3727.00,0.0062
3726.00,0.0062
3725.00,0.0061
3724.00,0.0061
3723.00,0.0061
3722.00,0.0061
3721.00,0.0061
3720.00,0.0060
3719.00,0.0060
3718.00,0.0060
3717.00,0.0060
3716.00,0.0061
3715.00,0.0062
3714.00,0.0065
3713.00,0.0067
3712.00,0.0069
3711.00,0.0070
3710.00,0.0071
3709.00,0.0072
3708.00,0.0073
3707.00,0.0073
3706.00,0.0073
3705.00,0.0073
3704.00,0.0074
3703.00,0.0074
3702.00,0.0075
3701.00,0.0075
3700.00,0.0075
3699.00,0.0077
3698.00,0.0078
3697.00,0.0079
3696.00,0.0081
3695.00,0.0083
3694.00,0.0085
3693.00,0.0088
3692.00,0.0090
3691.00,0.0092
3690.00,0.0094
3689.00,0.0098
3688.00,0.0102
3687.00,0.0105
3686.00,0.0107
3685.00,0.0109
3684.00,0.0110
3683.00,0.0112
3682.00,0.0114
3681.00,0.0116
3680.00,0.0118
3679.00,0.0121
3678.00,0.0125
3677.00,0.0132
3676.00,0.0138
3675.00,0.0144
3674.00,0.0150
3673.00,0.0156
3672.00,0.0161
3671.00,0.0166
3670.00,0.0169
3669.00,0.0171
3668.00,0.0173
3667.00,0.0176
3666.00,0.0179
3665.00,0.0182
3664.00,0.0185
3663.00,0.0188
3662.00,0.0192
3661.00,0.0196
3660.00,0.0200
3659.00,0.0205
3658.00,0.0212
3657.00,0.0220
3656.00,0.0228
3655.00,0.0235
3654.00,0.0242
3653.00,0.0249
3652.00,0.0257
3651.00,0.0266
3650.00,0.0275
3649.00,0.0286
3648.00,0.0296
3647.00,0.0305
3646.00,0.0311
3645.00,0.0316
3644.00,0.0320
3643.00,0.0323
3642.00,0.0327
3641.00,0.0332
3640.00,0.0337
3639.00,0.0343
3638.00,0.0350
3637.00,0.0357
3636.00,0.0365
3635.00,0.0373
3634.00,0.0380
3633.00,0.0387
3632.00,0.0394
3631.00,0.0403
3630.00,0.0415
3629.00,0.0427
3628.00,0.0439
3627.00,0.0449
3626.00,0.0458
3625.00,0.0464
3624.00,0.0470
3623.00,0.0475
3622.00,0.0480
3621.00,0.0486
3620.00,0.0494
3619.00,0.0503
3618.00,0.0513
3617.00,0.0523
3616.00,0.0533
3615.00,0.0541
3614.00,0.0548
3613.00,0.0555
3612.00,0.0563
3611.00,0.0571
3610.00,0.0580
3609.00,0.0589
3608.00,0.0596
3607.00,0.0603
3606.00,0.0610
3605.00,0.0616
3604.00,0.0623
3603.00,0.0629
3602.00,0.0635
3601.00,0.0642
3600.00,0.0650
3599.00,0.0658
3598.00,0.0667
3597.00,0.0676
3596.00,0.0685
3595.00,0.0694
3594.00,0.0702
3593.00,0.0710
3592.00,0.0717
3591.00,0.0725
3590.00,0.0734
3589.00,0.0744
3588.00,0.0754
3587.00,0.0764
3586.00,0.0774
3585.00,0.0784
3584.00,0.0792
3583.00,0.0799
3582.00,0.0804
3581.00,0.0810
3580.00,0.0816
3579.00,0.0823
3578.00,0.0831
3577.00,0.0840
3576.00,0.0849
3575.00,0.0858
3574.00,0.0867
3573.00,0.0876
3572.00,0.0886
3571.00,0.0895
3570.00,0.0905
3569.00,0.0916
3568.00,0.0927
3567.00,0.0939
3566.00,0.0951
3565.00,0.0963
3564.00,0.0974
3563.00,0.0983
3562.00,0.0991
3561.00,0.0999
3560.00,0.1007
3559.00,0.1015
3558.00,0.1023
3557.00,0.1032
3556.00,0.1042
3555.00,0.1051
3554.00,0.1061
3553.00,0.1071
3552.00,0.1082
3551.00,0.1093
3550.00,0.1104
3549.00,0.1115
3548.00,0.1125
3547.00,0.1135
3546.00,0.1145
3545.00,0.1155
3544.00,0.1164
3543.00,0.1173
3542.00,0.1181
3541.00,0.1189
3540.00,0.1196
3539.00,0.1203
3538.00,0.1211
3537.00,0.1219
3536.00,0.1227
3535.00,0.1235
3534.00,0.1243
3533.00,0.1251
3532.00,0.1258
3531.00,0.1265
3530.00,0.1272
3529.00,0.1280
3528.00,0.1289
3527.00,0.1298
3526.00,0.1307
3525.00,0.1315
3524.00,0.1323
3523.00,0.1329
3522.00,0.1336
3521.00,0.1342
3520.00,0.1348
3519.00,0.1354
3518.00,0.1361
3517.00,0.1367
3516.00,0.1375
3515.00,0.1382
3514.00,0.1389
3513.00,0.1396
3512.00,0.1403
3511.00,0.1410
3510.00,0.1417
3509.00,0.1425
3508.00,0.1434
3507.00,0.1442
3506.00,0.1450
3505.00,0.1458
3504.00,0.1466
3503.00,0.1474
3502.00,0.1482
3501.00,0.1489
3500.00,0.1497
3499.00,0.1505
3498.00,0.1512
3497.00,0.1519
3496.00,0.1526
3495.00,0.1534
3494.00,0.1541
3493.00,0.1549
3492.00,0.1556
3491.00,0.1564
3490.00,0.1572
3489.00,0.1579
3488.00,0.1587
3487.00,0.1595
3486.00,0.1603
3485.00,0.1611
3484.00,0.1619
3483.00,0.1627
3482.00,0.1635
3481.00,0.1643
3480.00,0.1651
3479.00,0.1659
3478.00,0.1666
3477.00,0.1672
3476.00,0.1679
3475.00,0.1686
3474.00,0.1694
3473.00,0.1703
3472.00,0.1712
3471.00,0.1721
3470.00,0.1729
3469.00,0.1737
3468.00,0.1745
3467.00,0.1752
3466.00,0.1760
3465.00,0.1767
3464.00,0.1774
3463.00,0.1781
3462.00,0.1788
3461.00,0.1796
3460.00,0.1804
3459.00,0.1812
3458.00,0.1820
3457.00,0.1828
3456.00,0.1836
3455.00,0.1843
3454.00,0.1850
3453.00,0.1857
3452.00,0.1865
3451.00,0.1872
3450.00,0.1879
3449.00,0.1887
3448.00,0.1895
3447.00,0.1902
3446.00,0.1910
3445.00,0.1919
3444.00,0.1927
3443.00,0.1935
3442.00,0.1943
3441.00,0.1951
3440.00,0.1959
3439.00,0.1968
3438.00,0.1976
3437.00,0.1985
3436.00,0.1992
3435.00,0.1999
3434.00,0.2006
3433.00,0.2013
3432.00,0.2021
3431.00,0.2029
3430.00,0.2038
3429.00,0.2046
3428.00,0.2054
3427.00,0.2061
3426.00,0.2069
3425.00,0.2076
3424.00,0.2084
3423.00,0.2092
3422.00,0.2100
3421.00,0.2108
3420.00,0.2117
3419.00,0.2125
3418.00,0.2133
3417.00,0.2141
3416.00,0.2149
3415.00,0.2157
3414.00,0.2166
3413.00,0.2173
3412.00,0.2181
3411.00,0.2188
3410.00,0.2194
3409.00,0.2201
3408.00,0.2208
3407.00,0.2214
3406.00,0.2221
3405.00,0.2227
3404.00,0.2234
3403.00,0.2241
3402.00,0.2246
3401.00,0.2251
3400.00,0.2254
3399.00,0.2258
3398.00,0.2261
3397.00,0.2265
3396.00,0.2269
3395.00,0.2273
3394.00,0.2277
3393.00,0.2281
3392.00,0.2284
3391.00,0.2286
3390.00,0.2288
3389.00,0.2289
3388.00,0.2290
3387.00,0.2291
3386.00,0.2293
3385.00,0.2294
3384.00,0.2297
3383.00,0.2299
3382.00,0.2301
3381.00,0.2303
3380.00,0.2304
3379.00,0.2305
3378.00,0.2307
3377.00,0.2308
3376.00,0.2309
3375.00,0.2309
3374.00,0.2310
3373.00,0.2311
3372.00,0.2313
3371.00,0.2315
3370.00,0.2316
3369.00,0.2317
3368.00,0.2317
3367.00,0.2317
3366.00,0.2316
3365.00,0.2316
3364.00,0.2316
3363.00,0.2316
3362.00,0.2317
3361.00,0.2317
3360.00,0.2317
3359.00,0.2317
3358.00,0.2317
3357.00,0.2316
3356.00,0.2316
3355.00,0.2316
3354.00,0.2316
3353.00,0.2317
3352.00,0.2317
3351.00,0.2316
3350.00,0.2315
3349.00,0.2314
3348.00,0.2313
3347.00,0.2312
3346.00,0.2312
3345.00,0.2311
3344.00,0.2311
3343.00,0.2311
3342.00,0.2310
3341.00,0.2310
3340.00,0.2308
3339.00,0.2307
3338.00,0.2305
3337.00,0.2304
3336.00,0.2303
3335.00,0.2302
3334.00,0.2301
3333.00,0.2300
3332.00,0.2298
3331.00,0.2296
3330.00,0.2294
3329.00,0.2293
3328.00,0.2292
3327.00,0.2291
3326.00,0.2290
3325.00,0.2289
3324.00,0.2288
3323.00,0.2287
3322.00,0.2286
3321.00,0.2285
3320.00,0.2283
3319.00,0.2282
3318.00,0.2280
3317.00,0.2279
3316.00,0.2277
3315.00,0.2276
3314.00,0.2275
3313.00,0.2275
3312.00,0.2274
3311.00,0.2273
3310.00,0.2272
3309.00,0.2271
3308.00,0.2269
3307.00,0.2268
3306.00,0.2267
3305.00,0.2267
3304.00,0.2266
3303.00,0.2265
3302.00,0.2264
3301.00,0.2263
3300.00,0.2261
3299.00,0.2260
3298.00,0.2259
3297.00,0.2258
3296.00,0.2256
3295.00,0.2255
3294.00,0.2254
3293.00,0.2253
3292.00,0.2252
3291.00,0.2251
3290.00,0.2250
3289.00,0.2249
3288.00,0.2248
3287.00,0.2246
3286.00,0.2245
3285.00,0.2244
3284.00,0.2242
3283.00,0.2240
3282.00,0.2237
3281.00,0.2235
3280.00,0.2233
3279.00,0.2230
3278.00,0.2228
3277.00,0.2226
3276.00,0.2224
3275.00,0.2221
3274.00,0.2218
3273.00,0.2215
3272.00,0.2212
3271.00,0.2209
3270.00,0.2206
3269.00,0.2203
3268.00,0.2199
3267.00,0.2195
3266.00,0.2192
3265.00,0.2188
3264.00,0.2184
3263.00,0.2180
3262.00,0.2175
3261.00,0.2171
3260.00,0.2166
3259.00,0.2161
3258.00,0.2156
3257.00,0.2151
3256.00,0.2147
3255.00,0.2142
3254.00,0.2138
3253.00,0.2133
3252.00,0.2129
3251.00,0.2124
3250.00,0.2119
3249.00,0.2114
3248.00,0.2109
3247.00,0.2104
3246.00,0.2098
3245.00,0.2093
3244.00,0.2088
3243.00,0.2082
3242.00,0.2077
3241.00,0.2072
3240.00,0.2067
3239.00,0.2061
3238.00,0.2055
3237.00,0.2048
3236.00,0.2042
3235.00,0.2036
3234.00,0.2030
3233.00,0.2025
3232.00,0.2019
3231.00,0.2013
3230.00,0.2006
3229.00,0.2000
3228.00,0.1994
3227.00,0.1988
3226.00,0.1982
3225.00,0.1976
3224.00,0.1969
3223.00,0.1963
3222.00,0.1957
3221.00,0.1950
3220.00,0.1944
3219.00,0.1937
3218.00,0.1930
3217.00,0.1924
3216.00,0.1917
3215.00,0.1910
3214.00,0.1903
3213.00,0.1896
3212.00,0.1889
3211.00,0.1882
3210.00,0.1875
3209.00,0.1868
3208.00,0.1860
3207.00,0.1853
3206.00,0.1845
3205.00,0.1838
3204.00,0.1830
3203.00,0.1823
3202.00,0.1815
3201.00,0.1807
3200.00,0.1799
3199.00,0.1791
3198.00,0.1784
3197.00,0.1776
3196.00,0.1769
3195.00,0.1761
3194.00,0.1753
3193.00,0.1745
3192.00,0.1737
3191.00,0.1728
3190.00,0.1720
3189.00,0.1711
3188.00,0.1703
3187.00,0.1694
3186.00,0.1686
3185.00,0.1677
3184.00,0.1669
3183.00,0.1661
3182.00,0.1652
3181.00,0.1644
3180.00,0.1635
3179.00,0.1626
3178.00,0.1618
3177.00,0.1609
3176.00,0.1600
3175.00,0.1591
3174.00,0.1581
3173.00,0.1572
3172.00,0.1563
3171.00,0.1555
3170.00,0.1546
3169.00,0.1538
3168.00,0.1529
3167.00,0.1520
3166.00,0.1511
3165.00,0.1502
3164.00,0.1492
3163.00,0.1483
3162.00,0.1474
3161.00,0.1465
3160.00,0.1457
3159.00,0.1448
3158.00,0.1439
3157.00,0.1431
3156.00,0.1422
3155.00,0.1414
3154.00,0.1406
3153.00,0.1397
3152.00,0.1389
3151.00,0.1380
3150.00,0.1372
3149.00,0.1363
3148.00,0.1354
3147.00,0.1346
3146.00,0.1338
3145.00,0.1330
3144.00,0.1321
3143.00,0.1313
3142.00,0.1304
3141.00,0.1296
3140.00,0.1288
3139.00,0.1280
3138.00,0.1273
3137.00,0.1265
3136.00,0.1257
3135.00,0.1249
3134.00,0.1241
3133.00,0.1234
3132.00,0.1226
3131.00,0.1219
3130.00,0.1212
3129.00,0.1205
3128.00,0.1197
3127.00,0.1190
3126.00,0.1183
3125.00,0.1176
3124.00,0.1169
3123.00,0.1162
3122.00,0.1154
3121.00,0.1147
3120.00,0.1141
3119.00,0.1134
3118.00,0.1128
3117.00,0.1121
3116.00,0.1115
3115.00,0.1108
3114.00,0.1102
3113.00,0.1097
3112.00,0.1091
3111.00,0.1085
3110.00,0.1079
3109.00,0.1072
3108.00,0.1067
3107.00,0.1061
3106.00,0.1056
3105.00,0.1051
3104.00,0.1045
3103.00,0.1040
3102.00,0.1035
3101.00,0.1029
3100.00,0.1024
3099.00,0.1019
3098.00,0.1015
3097.00,0.1010
3096.00,0.1005
3095.00,0.1000
3094.00,0.0995
3093.00,0.0989
3092.00,0.0983
3091.00,0.0978
3090.00,0.0973
3089.00,0.0968
3088.00,0.0963
3087.00,0.0958
3086.00,0.0954
3085.00,0.0949
3084.00,0.0945
3083.00,0.0940
3082.00,0.0936
3081.00,0.0932
3080.00,0.0927
3079.00,0.0923
3078.00,0.0919
3077.00,0.0915
3076.00,0.0911
3075.00,0.0906
3074.00,0.0901
3073.00,0.0896
3072.00,0.0891
3071.00,0.0886
3070.00,0.0882
3069.00,0.0877
3068.00,0.0872
3067.00,0.0867
3066.00,0.0863
3065.00,0.0859
3064.00,0.0854
3063.00,0.0849
3062.00,0.0844
3061.00,0.0838
3060.00,0.0833
3059.00,0.0827
3058.00,0.0822
3057.00,0.0817
3056.00,0.0811
3055.00,0.0806
3054.00,0.0800
3053.00,0.0795
3052.00,0.0790
3051.00,0.0785
3050.00,0.0780
3049.00,0.0775
3048.00,0.0770
3047.00,0.0764
3046.00,0.0759
3045.00,0.0753
3044.00,0.0748
3043.00,0.0743
3042.00,0.0738
3041.00,0.0733
3040.00,0.0728
3039.00,0.0723
3038.00,0.0718
3037.00,0.0713
3036.00,0.0708
3035.00,0.0703
3034.00,0.0699
3033.00,0.0694
3032.00,0.0690
3031.00,0.0686
3030.00,0.0681
3029.00,0.0677
3028.00,0.0672
3027.00,0.0668
3026.00,0.0663
3025.00,0.0658
3024.00,0.0654
3023.00,0.0649
3022.00,0.0645
3021.00,0.0641
3020.00,0.0637
3019.00,0.0633
3018.00,0.0630
3017.00,0.0626
3016.00,0.0623
3015.00,0.0619
3014.00,0.0615
3013.00,0.0612
3012.00,0.0608
3011.00,0.0605
3010.00,0.0603
3009.00,0.0600
3008.00,0.0597
3007.00,0.0594
3006.00,0.0591
3005.00,0.0587
3004.00,0.0584
3003.00,0.0582
3002.00,0.0579
3001.00,0.0576
3000.00,0.0573
2999.00,0.0571
2998.00,0.0569
2997.00,0.0567
2996.00,0.0565
2995.00,0.0563
2994.00,0.0562
2993.00,0.0561
2992.00,0.0561
2991.00,0.0560
2990.00,0.0560
2989.00,0.0559
2988.00,0.0560
2987.00,0.0560
2986.00,0.0560
2985.00,0.0561
2984.00,0.0561
2983.00,0.0561
2982.00,0.0562
2981.00,0.0563
2980.00,0.0564
2979.00,0.0565
2978.00,0.0566
2977.00,0.0568
2976.00,0.0569
2975.00,0.0570
2974.00,0.0572
2973.00,0.0574
2972.00,0.0575
2971.00,0.0577
2970.00,0.0578
2969.00,0.0579
2968.00,0.0580
2967.00,0.0581
2966.00,0.0582
2965.00,0.0583
2964.00,0.0584
2963.00,0.0584
2962.00,0.0584
2961.00,0.0584
2960.00,0.0583
2959.00,0.0582
2958.00,0.0580
2957.00,0.0578
2956.00,0.0576
2955.00,0.0573
2954.00,0.0570
2953.00,0.0567
2952.00,0.0565
2951.00,0.0562
2950.00,0.0560
2949.00,0.0558
2948.00,0.0556
2947.00,0.0555
2946.00,0.0554
2945.00,0.0554
2944.00,0.0554
2943.00,0.0556
2942.00,0.0557
2941.00,0.0558
2940.00,0.0560
2939.00,0.0561
2938.00,0.0562
2937.00,0.0563
2936.00,0.0564
2935.00,0.0564
2934.00,0.0564
2933.00,0.0565
2932.00,0.0565
2931.00,0.0565
2930.00,0.0564
2929.00,0.0564
2928.00,0.0564
2927.00,0.0563
2926.00,0.0562
2925.00,0.0560
2924.00,0.0558
2923.00,0.0556
2922.00,0.0553
2921.00,0.0549
2920.00,0.0544
2919.00,0.0540
2918.00,0.0534
2917.00,0.0529
2916.00,0.0522
2915.00,0.0515
2914.00,0.0509
2913.00,0.0502
2912.00,0.0496
2911.00,0.0491
2910.00,0.0485
2909.00,0.0480
2908.00,0.0475
2907.00,0.0471
2906.00,0.0467
2905.00,0.0463
2904.00,0.0459
2903.00,0.0455
2902.00,0.0451
2901.00,0.0448
2900.00,0.0444
2899.00,0.0440
2898.00,0.0437
2897.00,0.0434
2896.00,0.0430
2895.00,0.0427
2894.00,0.0424
2893.00,0.0421
2892.00,0.0419
2891.00,0.0416
2890.00,0.0413
2889.00,0.0411
2888.00,0.0408
2887.00,0.0406
2886.00,0.0404
2885.00,0.0402
2884.00,0.0401
2883.00,0.0399
2882.00,0.0398
2881.00,0.0397
2880.00,0.0396
2879.00,0.0395
2878.00,0.0394
2877.00,0.0392
2876.00,0.0390
2875.00,0.0388
2874.00,0.0386
2873.00,0.0383
2872.00,0.0381
2871.00,0.0379
2870.00,0.0376
2869.00,0.0373
2868.00,0.0369
2867.00,0.0366
2866.00,0.0362
2865.00,0.0359
2864.00,0.0357
2863.00,0.0355
2862.00,0.0353
2861.00,0.0352
2860.00,0.0351
2859.00,0.0351
2858.00,0.0350
2857.00,0.0350
2856.00,0.0350
2855.00,0.0349
2854.00,0.0348
2853.00,0.0347
2852.00,0.0345
2851.00,0.0343
2850.00,0.0339
2849.00,0.0334
2848.00,0.0329
2847.00,0.0323
2846.00,0.0317
2845.00,0.0311
2844.00,0.0306
2843.00,0.0300
2842.00,0.0296
2841.00,0.0291
2840.00,0.0288
2839.00,0.0284
2838.00,0.0281
2837.00,0.0279
2836.00,0.0277
2835.00,0.0275
2834.00,0.0272
2833.00,0.0270
2832.00,0.0268
2831.00,0.0266
2830.00,0.0265
2829.00,0.0263
2828.00,0.0261
2827.00,0.0260
2826.00,0.0258
2825.00,0.0257
2824.00,0.0255
2823.00,0.0253
2822.00,0.0252
2821.00,0.0250
2820.00,0.0249
2819.00,0.0247
2818.00,0.0246
2817.00,0.0244
2816.00,0.0243
2815.00,0.0241
2814.00,0.0240
2813.00,0.0238
2812.00,0.0237
2811.00,0.0235
2810.00,0.0234
2809.00,0.0232
2808.00,0.0231
2807.00,0.0230
2806.00,0.0228
2805.00,0.0227
2804.00,0.0225
2803.00,0.0224
2802.00,0.0223
2801.00,0.0221
2800.00,0.0220
2799.00,0.0218
2798.00,0.0217
2797.00,0.0216
2796.00,0.0215
2795.00,0.0214
2794.00,0.0213
2793.00,0.0211
2792.00,0.0210
2791.00,0.0209
2790.00,0.0208
2789.00,0.0207
2788.00,0.0207
2787.00,0.0206
2786.00,0.0205
2785.00,0.0204
2784.00,0.0203
2783.00,0.0202
2782.00,0.0201
2781.00,0.0200
2780.00,0.0199
2779.00,0.0197
2778.00,0.0196
2777.00,0.0195
2776.00,0.0194
2775.00,0.0193
2774.00,0.0192
2773.00,0.0191
2772.00,0.0190
2771.00,0.0189
2770.00,0.0188
2769.00,0.0188
2768.00,0.0187
2767.00,0.0186
2766.00,0.0186
2765.00,0.0185
2764.00,0.0184
2763.00,0.0183
2762.00,0.0182
2761.00,0.0181
2760.00,0.0181
2759.00,0.0180
2758.00,0.0179
2757.00,0.0178
2756.00,0.0177
2755.00,0.0176
2754.00,0.0175
2753.00,0.0175
2752.00,0.0174
2751.00,0.0173
2750.00,0.0173
2749.00,0.0172
2748.00,0.0172
2747.00,0.0171
2746.00,0.0170
2745.00,0.0169
2744.00,0.0168
2743.00,0.0167
2742.00,0.0167
2741.00,0.0166
2740.00,0.0165
2739.00,0.0164
2738.00,0.0163
2737.00,0.0163
2736.00,0.0162
2735.00,0.0162
2734.00,0.0161
2733.00,0.0161
2732.00,0.0160
2731.00,0.0159
2730.00,0.0159
2729.00,0.0158
2728.00,0.0157
2727.00,0.0156
2726.00,0.0155
2725.00,0.0155
2724.00,0.0154
2723.00,0.0153
2722.00,0.0152
2721.00,0.0152
2720.00,0.0151
2719.00,0.0150
2718.00,0.0150
2717.00,0.0150
2716.00,0.0149
2715.00,0.0148
2714.00,0.0147
2713.00,0.0147
2712.00,0.0146
2711.00,0.0145
2710.00,0.0145
2709.00,0.0144
2708.00,0.0143
2707.00,0.0143
2706.00,0.0142
2705.00,0.0142
2704.00,0.0142
2703.00,0.0141
2702.00,0.0141
2701.00,0.0140
2700.00,0.0139
2699.00,0.0139
2698.00,0.0138
2697.00,0.0138
2696.00,0.0137
2695.00,0.0137
2694.00,0.0137
2693.00,0.0136
2692.00,0.0135
2691.00,0.0135
2690.00,0.0135
2689.00,0.0134
2688.00,0.0134
2687.00,0.0133
2686.00,0.0132
2685.00,0.0132
2684.00,0.0132
2683.00,0.0131
2682.00,0.0131
2681.00,0.0131
2680.00,0.0130
2679.00,0.0129
2678.00,0.0129
2677.00,0.0128
2676.00,0.0128
2675.00,0.0128
2674.00,0.0127
2673.00,0.0126
2672.00,0.0126
2671.00,0.0126
2670.00,0.0126
2669.00,0.0125
2668.00,0.0125
2667.00,0.0125
2666.00,0.0125
2665.00,0.0125
2664.00,0.0125
2663.00,0.0125
2662.00,0.0125
2661.00,0.0125
2660.00,0.0125
2659.00,0.0125
2658.00,0.0125
2657.00,0.0125
2656.00,0.0124
2655.00,0.0124
2654.00,0.0123
2653.00,0.0123
2652.00,0.0122
2651.00,0.0122
2650.00,0.0122
2649.00,0.0121
2648.00,0.0121
2647.00,0.0120
2646.00,0.0120
2645.00,0.0119
2644.00,0.0119
2643.00,0.0119
2642.00,0.0118
2641.00,0.0118
2640.00,0.0117
2639.00,0.0117
2638.00,0.0116
2637.00,0.0115
2636.00,0.0115
2635.00,0.0114
2634.00,0.0113
2633.00,0.0113
2632.00,0.0112
2631.00,0.0111
2630.00,0.0111
2629.00,0.0111
2628.00,0.0111
2627.00,0.0110
2626.00,0.0110
2625.00,0.0109
2624.00,0.0108
2623.00,0.0108
2622.00,0.0108
2621.00,0.0107
2620.00,0.0107
2619.00,0.0106
2618.00,0.0106
2617.00,0.0106
2616.00,0.0105
2615.00,0.0104
2614.00,0.0104
2613.00,0.0104
2612.00,0.0103
2611.00,0.0103
2610.00,0.0102
2609.00,0.0101
2608.00,0.0100
2607.00,0.0100
2606.00,0.0100
2605.00,0.0100
2604.00,0.0100
2603.00,0.0100
2602.00,0.0099
2601.00,0.0099
2600.00,0.0098
2599.00,0.0098
2598.00,0.0097
2597.00,0.0097
2596.00,0.0097
2595.00,0.0096
2594.00,0.0096
2593.00,0.0095
2592.00,0.0095
2591.00,0.0094
2590.00,0.0093
2589.00,0.0093
2588.00,0.0092
2587.00,0.0092
2586.00,0.0091
2585.00,0.0091
2584.00,0.0091
2583.00,0.0091
2582.00,0.0091
2581.00,0.0091
2580.00,0.0091
2579.00,0.0091
2578.00,0.0091
2577.00,0.0091
2576.00,0.0091
2575.00,0.0090
2574.00,0.0090
2573.00,0.0090
2572.00,0.0089
2571.00,0.0088
2570.00,0.0088
2569.00,0.0087
2568.00,0.0087
2567.00,0.0086
2566.00,0.0086
2565.00,0.0085
2564.00,0.0085
2563.00,0.0085
2562.00,0.0085
2561.00,0.0085
2560.00,0.0085
2559.00,0.0085
2558.00,0.0085
2557.00,0.0085
2556.00,0.0084
2555.00,0.0084
2554.00,0.0084
2553.00,0.0084
2552.00,0.0085
2551.00,0.0085
2550.00,0.0084
2549.00,0.0084
2548.00,0.0084
2547.00,0.0084
2546.00,0.0083
2545.00,0.0083
2544.00,0.0083
2543.00,0.0082
2542.00,0.0082
2541.00,0.0082
2540.00,0.0082
2539.00,0.0082
2538.00,0.0081
2537.00,0.0081
2536.00,0.0080
2535.00,0.0080
2534.00,0.0081
2533.00,0.0081
2532.00,0.0081
2531.00,0.0081
2530.00,0.0080
2529.00,0.0080
2528.00,0.0081
2527.00,0.0082
2526.00,0.0082
2525.00,0.0082
2524.00,0.0081
2523.00,0.0081
2522.00,0.0080
2521.00,0.0080
2520.00,0.0080
2519.00,0.0080
2518.00,0.0080
2517.00,0.0080
2516.00,0.0081
2515.00,0.0081
2514.00,0.0081
2513.00,0.0080
2512.00,0.0080
2511.00,0.0080
2510.00,0.0079
2509.00,0.0079
2508.00,0.0080
2507.00,0.0080
2506.00,0.0079
2505.00,0.0079
2504.00,0.0079
2503.00,0.0079
2502.00,0.0079
2501.00,0.0079
2500.00,0.0078
2499.00,0.0078
2498.00,0.0078
2497.00,0.0078
2496.00,0.0079
2495.00,0.0079
2494.00,0.0079
2493.00,0.0079
2492.00,0.0078
2491.00,0.0078
2490.00,0.0078
2489.00,0.0078
2488.00,0.0078
2487.00,0.0078
2486.00,0.0078
2485.00,0.0077
2484.00,0.0077
2483.00,0.0077
2482.00,0.0077
2481.00,0.0077
2480.00,0.0077
2479.00,0.0076
2478.00,0.0076
2477.00,0.0075
2476.00,0.0075
2475.00,0.0076
2474.00,0.0076
2473.00,0.0076
2472.00,0.0076
2471.00,0.0076
2470.00,0.0076
2469.00,0.0075
2468.00,0.0075
2467.00,0.0075
2466.00,0.0075
2465.00,0.0075
2464.00,0.0075
2463.00,0.0075
2462.00,0.0076
2461.00,0.0076
2460.00,0.0076
2459.00,0.0077
2458.00,0.0077
2457.00,0.0078
2456.00,0.0078
2455.00,0.0079
2454.00,0.0078
2453.00,0.0078
2452.00,0.0077
2451.00,0.0077
2450.00,0.0077
2449.00,0.0077
2448.00,0.0077
2447.00,0.0076
2446.00,0.0076
2445.00,0.0076
2444.00,0.0076
2443.00,0.0076
2442.00,0.0076
2441.00,0.0076
2440.00,0.0076
2439.00,0.0076
2438.00,0.0076
2437.00,0.0075
2436.00,0.0075
2435.00,0.0075
2434.00,0.0075
2433.00,0.0075
2432.00,0.0075
2431.00,0.0076
2430.00,0.0076
2429.00,0.0075
2428.00,0.0075
2427.00,0.0075
2426.00,0.0076
2425.00,0.0076
2424.00,0.0076
2423.00,0.0075
2422.00,0.0075
2421.00,0.0075
2420.00,0.0075
2419.00,0.0074
2418.00,0.0074
2417.00,0.0074
2416.00,0.0074
2415.00,0.0073
2414.00,0.0073
2413.00,0.0073
2412.00,0.0074
2411.00,0.0075
2410.00,0.0075
2409.00,0.0075
2408.00,0.0075
2407.00,0.0074
2406.00,0.0074
2405.00,0.0074
2404.00,0.0074
2403.00,0.0074
2402.00,0.0074
2401.00,0.0075
2400.00,0.0075
2399.00,0.0075
2398.00,0.0075
2397.00,0.0075
2396.00,0.0075
2395.00,0.0075
2394.00,0.0075
2393.00,0.0076
2392.00,0.0076
2391.00,0.0076
2390.00,0.0076
2389.00,0.0076
2388.00,0.0076
2387.00,0.0076
2386.00,0.0076
2385.00,0.0075
2384.00,0.0075
2383.00,0.0074
2382.00,0.0073
2381.00,0.0072
2380.00,0.0072
2379.00,0.0072
2378.00,0.0071
2377.00,0.0072
2376.00,0.0073
2375.00,0.0074
2374.00,0.0076
2373.00,0.0077
2372.00,0.0077
2371.00,0.0076
2370.00,0.0075
2369.00,0.0075
2368.00,0.0075
2367.00,0.0074
2366.00,0.0074
2365.00,0.0075
2364.00,0.0076
2363.00,0.0078
2362.00,0.0079
2361.00,0.0080
2360.00,0.0081
2359.00,0.0080
2358.00,0.0079
2357.00,0.0079
2356.00,0.0079
2355.00,0.0080
2354.00,0.0081
2353.00,0.0081
2352.00,0.0080
2351.00,0.0079
2350.00,0.0080
2349.00,0.0081
2348.00,0.0083
2347.00,0.0085
2346.00,0.0085
2345.00,0.0084
2344.00,0.0084
2343.00,0.0084
2342.00,0.0086
2341.00,0.0087
2340.00,0.0087
2339.00,0.0087
2338.00,0.0086
2337.00,0.0086
2336.00,0.0086
2335.00,0.0086
2334.00,0.0086
2333.00,0.0086
2332.00,0.0085
2331.00,0.0084
2330.00,0.0084
2329.00,0.0086
2328.00,0.0089
2327.00,0.0094
2326.00,0.0099
2325.00,0.0103
2324.00,0.0104
2323.00,0.0103
2322.00,0.0100
2321.00,0.0098
2320.00,0.0097
2319.00,0.0097
2318.00,0.0097
2317.00,0.0098
2316.00,0.0098
2315.00,0.0097
2314.00,0.0096
2313.00,0.0095
2312.00,0.0095
2311.00,0.0095
2310.00,0.0095
2309.00,0.0094
2308.00,0.0094
2307.00,0.0093
2306.00,0.0093
2305.00,0.0093
2304.00,0.0094
2303.00,0.0094
2302.00,0.0095
2301.00,0.0096
2300.00,0.0097
2299.00,0.0098
2298.00,0.0099
2297.00,0.0099
2296.00,0.0100
2295.00,0.0100
2294.00,0.0100
2293.00,0.0100
2292.00,0.0101
2291.00,0.0102
2290.00,0.0103
2289.00,0.0105
2288.00,0.0105
2287.00,0.0106
2286.00,0.0106
2285.00,0.0105
2284.00,0.0105
2283.00,0.0105
2282.00,0.0105
2281.00,0.0105
2280.00,0.0104
2279.00,0.0104
2278.00,0.0103
2277.00,0.0102
2276.00,0.0102
2275.00,0.0101
2274.00,0.0101
2273.00,0.0101
2272.00,0.0102
2271.00,0.0102
2270.00,0.0101
2269.00,0.0100
2268.00,0.0099
2267.00,0.0098
2266.00,0.0097
2265.00,0.0096
2264.00,0.0097
2263.00,0.0096
2262.00,0.0096
2261.00,0.0096
2260.00,0.0097
2259.00,0.0098
2258.00,0.0098
2257.00,0.0098
2256.00,0.0097
2255.00,0.0096
2254.00,0.0095
2253.00,0.0095
2252.00,0.0095
2251.00,0.0094
2250.00,0.0094
2249.00,0.0094
2248.00,0.0095
2247.00,0.0096
2246.00,0.0096
2245.00,0.0096
2244.00,0.0095
2243.00,0.0094
2242.00,0.0095
2241.00,0.0095
2240.00,0.0096
2239.00,0.0096
2238.00,0.0096
2237.00,0.0095
2236.00,0.0095
2235.00,0.0094
2234.00,0.0094
2233.00,0.0094
2232.00,0.0095
2231.00,0.0096
2230.00,0.0097
2229.00,0.0097
2228.00,0.0098
2227.00,0.0097
2226.00,0.0097
2225.00,0.0097
2224.00,0.0097
2223.00,0.0096
2222.00,0.0095
2221.00,0.0094
2220.00,0.0094
2219.00,0.0095
2218.00,0.0096
2217.00,0.0097
2216.00,0.0098
2215.00,0.0099
2214.00,0.0098
2213.00,0.0097
2212.00,0.0095
2211.00,0.0093
2210.00,0.0093
2209.00,0.0094
2208.00,0.0095
2207.00,0.0096
2206.00,0.0096
2205.00,0.0096
2204.00,0.0097
2203.00,0.0098
2202.00,0.0099
2201.00,0.0099
2200.00,0.0098
2199.00,0.0096
2198.00,0.0094
2197.00,0.0094
2196.00,0.0094
2195.00,0.0095
2194.00,0.0096
2193.00,0.0097
2192.00,0.0097
2191.00,0.0096
2190.00,0.0096
2189.00,0.0097
2188.00,0.0099
2187.00,0.0099
2186.00,0.0098
2185.00,0.0097
2184.00,0.0095
2183.00,0.0093
2182.00,0.0092
2181.00,0.0091
2180.00,0.0090
2179.00,0.0089
2178.00,0.0088
2177.00,0.0087
2176.00,0.0086
2175.00,0.0085
2174.00,0.0085
2173.00,0.0085
2172.00,0.0086
2171.00,0.0087
2170.00,0.0090
2169.00,0.0095
2168.00,0.0099
2167.00,0.0100
2166.00,0.0097
2165.00,0.0093
2164.00,0.0091
2163.00,0.0091
2162.00,0.0091
2161.00,0.0088
2160.00,0.0078
2159.00,0.0061
2158.00,0.0046
2157.00,0.0039
2156.00,0.0041
2155.00,0.0046
2154.00,0.0050
2153.00,0.0054
2152.00,0.0057
2151.00,0.0059
2150.00,0.0062
2149.00,0.0065
2148.00,0.0069
2147.00,0.0071
2146.00,0.0072
2145.00,0.0072
2144.00,0.0072
2143.00,0.0073
2142.00,0.0072
2141.00,0.0073
2140.00,0.0075
2139.00,0.0078
2138.00,0.0080
2137.00,0.0082
2136.00,0.0081
2135.00,0.0079
2134.00,0.0077
2133.00,0.0077
2132.00,0.0079
2131.00,0.0081
2130.00,0.0084
2129.00,0.0087
2128.00,0.0091
2127.00,0.0094
2126.00,0.0096
2125.00,0.0098
2124.00,0.0100
2123.00,0.0102
2122.00,0.0103
2121.00,0.0103
2120.00,0.0103
2119.00,0.0103
2118.00,0.0103
2117.00,0.0105
2116.00,0.0107
2115.00,0.0109
2114.00,0.0110
2113.00,0.0110
2112.00,0.0109
2111.00,0.0109
2110.00,0.0109
2109.00,0.0110
2108.00,0.0112
2107.00,0.0113
2106.00,0.0113
2105.00,0.0113
2104.00,0.0112
2103.00,0.0111
2102.00,0.0110
2101.00,0.0108
2100.00,0.0107
2099.00,0.0107
2098.00,0.0105
2097.00,0.0105
2096.00,0.0104
2095.00,0.0103
2094.00,0.0101
2093.00,0.0100
2092.00,0.0100
2091.00,0.0100
2090.00,0.0100
2089.00,0.0101
2088.00,0.0102
2087.00,0.0103
2086.00,0.0104
2085.00,0.0105
2084.00,0.0105
2083.00,0.0104
2082.00,0.0103
2081.00,0.0103
2080.00,0.0103
2079.00,0.0103
2078.00,0.0102
2077.00,0.0101
2076.00,0.0100
2075.00,0.0100
2074.00,0.0100
2073.00,0.0100
2072.00,0.0101
2071.00,0.0100
2070.00,0.0098
2069.00,0.0096
2068.00,0.0094
2067.00,0.0092
2066.00,0.0090
2065.00,0.0088
2064.00,0.0088
2063.00,0.0088
2062.00,0.0090
2061.00,0.0091
2060.00,0.0092
2059.00,0.0092
2058.00,0.0090
2057.00,0.0089
2056.00,0.0087
2055.00,0.0086
2054.00,0.0087
2053.00,0.0089
2052.00,0.0093
2051.00,0.0095
2050.00,0.0095
2049.00,0.0091
2048.00,0.0086
2047.00,0.0080
2046.00,0.0076
2045.00,0.0073
2044.00,0.0070
2043.00,0.0068
2042.00,0.0068
2041.00,0.0069
2040.00,0.0072
2039.00,0.0074
2038.00,0.0074
2037.00,0.0073
2036.00,0.0070
2035.00,0.0066
2034.00,0.0062
2033.00,0.0060
2032.00,0.0060
2031.00,0.0060
2030.00,0.0060
2029.00,0.0059
2028.00,0.0057
2027.00,0.0054
2026.00,0.0051
2025.00,0.0051
2024.00,0.0053
2023.00,0.0055
2022.00,0.0056
2021.00,0.0056
2020.00,0.0057
2019.00,0.0056
2018.00,0.0055
2017.00,0.0053
2016.00,0.0052
2015.00,0.0051
2014.00,0.0050
2013.00,0.0051
2012.00,0.0050
2011.00,0.0049
2010.00,0.0046
2009.00,0.0045
2008.00,0.0045
2007.00,0.0044
2006.00,0.0043
2005.00,0.0044
2004.00,0.0046
2003.00,0.0049
2002.00,0.0052
2001.00,0.0055
2000.00,0.0058
1999.00,0.0060
1998.00,0.0061
1997.00,0.0061
1996.00,0.0060
1995.00,0.0060
1994.00,0.0060
1993.00,0.0061
1992.00,0.0063
1991.00,0.0064
1990.00,0.0063
1989.00,0.0063
1988.00,0.0063
1987.00,0.0063
1986.00,0.0062
1985.00,0.0064
1984.00,0.0068
1983.00,0.0071
1982.00,0.0072
1981.00,0.0073
1980.00,0.0071
1979.00,0.0066
1978.00,0.0059
1977.00,0.0053
1976.00,0.0050
1975.00,0.0047
1974.00,0.0044
1973.00,0.0042
1972.00,0.0041
1971.00,0.0040
1970.00,0.0040
1969.00,0.0041
1968.00,0.0042
1967.00,0.0043
1966.00,0.0044
1965.00,0.0045
1964.00,0.0047
1963.00,0.0047
1962.00,0.0046
1961.00,0.0045
1960.00,0.0044
1959.00,0.0041
1958.00,0.0040
1957.00,0.0042
1956.00,0.0046
1955.00,0.0049
1954.00,0.0049
1953.00,0.0048
1952.00,0.0047
1951.00,0.0047
1950.00,0.0048
1949.00,0.0048
1948.00,0.0047
1947.00,0.0046
1946.00,0.0045
1945.00,0.0045
1944.00,0.0046
1943.00,0.0046
1942.00,0.0046
1941.00,0.0047
1940.00,0.0049
1939.00,0.0051
1938.00,0.0051
1937.00,0.0050
1936.00,0.0050
1935.00,0.0051
1934.00,0.0051
1933.00,0.0051
1932.00,0.0051
1931.00,0.0051
1930.00,0.0051
1929.00,0.0052
1928.00,0.0053
1927.00,0.0052
1926.00,0.0051
1925.00,0.0051
1924.00,0.0051
1923.00,0.0051
1922.00,0.0052
1921.00,0.0052
1920.00,0.0053
1919.00,0.0053
1918.00,0.0051
1917.00,0.0050
1916.00,0.0050
1915.00,0.0051
1914.00,0.0052
1913.00,0.0052
1912.00,0.0053
1911.00,0.0053
1910.00,0.0053
1909.00,0.0052
1908.00,0.0052
1907.00,0.0052
1906.00,0.0052
1905.00,0.0051
1904.00,0.0050
1903.00,0.0050
1902.00,0.0050
1901.00,0.0050
1900.00,0.0051
1899.00,0.0050
1898.00,0.0050
1897.00,0.0050
1896.00,0.0051
1895.00,0.0051
1894.00,0.0050
1893.00,0.0049
1892.00,0.0048
1891.00,0.0048
1890.00,0.0047
1889.00,0.0047
1888.00,0.0047
1887.00,0.0047
1886.00,0.0048
1885.00,0.0047
1884.00,0.0047
1883.00,0.0047
1882.00,0.0048
1881.00,0.0048
1880.00,0.0048
1879.00,0.0048
1878.00,0.0047
1877.00,0.0046
1876.00,0.0046
1875.00,0.0046
1874.00,0.0046
1873.00,0.0046
1872.00,0.0046
1871.00,0.0046
1870.00,0.0045
1869.00,0.0044
1868.00,0.0044
1867.00,0.0044
1866.00,0.0045
1865.00,0.0046
1864.00,0.0046
1863.00,0.0045
1862.00,0.0044
1861.00,0.0044
1860.00,0.0045
1859.00,0.0046
1858.00,0.0046
1857.00,0.0046
1856.00,0.0046
1855.00,0.0045
1854.00,0.0044
1853.00,0.0044
1852.00,0.0044
1851.00,0.0044
1850.00,0.0044
1849.00,0.0043
1848.00,0.0042
1847.00,0.0043
1846.00,0.0044
1845.00,0.0045
1844.00,0.0044
1843.00,0.0042
1842.00,0.0041
1841.00,0.0042
1840.00,0.0044
1839.00,0.0045
1838.00,0.0044
1837.00,0.0043
1836.00,0.0043
1835.00,0.0043
1834.00,0.0043
1833.00,0.0043
1832.00,0.0044
1831.00,0.0045
1830.00,0.0044
1829.00,0.0042
1828.00,0.0042
1827.00,0.0042
1826.00,0.0043
1825.00,0.0044
1824.00,0.0044
1823.00,0.0044
1822.00,0.0045
1821.00,0.0046
1820.00,0.0046
1819.00,0.0044
1818.00,0.0043
1817.00,0.0041
1816.00,0.0041
1815.00,0.0041
1814.00,0.0042
1813.00,0.0043
1812.00,0.0044
1811.00,0.0045
1810.00,0.0045
1809.00,0.0045
1808.00,0.0045
1807.00,0.0044
1806.00,0.0044
1805.00,0.0043
1804.00,0.0043
1803.00,0.0043
1802.00,0.0043
1801.00,0.0043
1800.00,0.0044
1799.00,0.0045
1798.00,0.0045
1797.00,0.0045
1796.00,0.0044
1795.00,0.0044
1794.00,0.0044
1793.00,0.0045
1792.00,0.0044
1791.00,0.0042
1790.00,0.0042
1789.00,0.0043
1788.00,0.0044
1787.00,0.0045
1786.00,0.0044
1785.00,0.0043
1784.00,0.0043
1783.00,0.0043
1782.00,0.0043
1781.00,0.0043
1780.00,0.0044
1779.00,0.0043
1778.00,0.0043
1777.00,0.0042
1776.00,0.0042
1775.00,0.0043
1774.00,0.0044
1773.00,0.0046
1772.00,0.0045
1771.00,0.0043
1770.00,0.0042
1769.00,0.0044
1768.00,0.0045
1767.00,0.0045
1766.00,0.0043
1765.00,0.0043
1764.00,0.0044
1763.00,0.0045
1762.00,0.0045
1761.00,0.0045
1760.00,0.0047
1759.00,0.0049
1758.00,0.0052
1757.00,0.0054
1756.00,0.0057
1755.00,0.0059
1754.00,0.0062
1753.00,0.0066
1752.00,0.0071
1751.00,0.0074
1750.00,0.0076
1749.00,0.0079
1748.00,0.0084
1747.00,0.0088
1746.00,0.0091
1745.00,0.0094
1744.00,0.0098
1743.00,0.0100
1742.00,0.0103
1741.00,0.0107
1740.00,0.0111
1739.00,0.0113
1738.00,0.0113
1737.00,0.0116
1736.00,0.0123
1735.00,0.0130
1734.00,0.0135
1733.00,0.0137
1732.00,0.0139
1731.00,0.0142
1730.00,0.0146
1729.00,0.0149
1728.00,0.0153
1727.00,0.0157
1726.00,0.0161
1725.00,0.0165
1724.00,0.0171
1723.00,0.0176
1722.00,0.0179
1721.00,0.0183
1720.00,0.0189
1719.00,0.0197
1718.00,0.0206
1717.00,0.0216
1716.00,0.0224
1715.00,0.0231
1714.00,0.0236
1713.00,0.0243
1712.00,0.0250
1711.00,0.0257
1710.00,0.0264
1709.00,0.0272
1708.00,0.0281
1707.00,0.0291
1706.00,0.0303
1705.00,0.0314
1704.00,0.0325
1703.00,0.0335
1702.00,0.0349
1701.00,0.0369
1700.00,0.0394
1699.00,0.0418
1698.00,0.0439
1697.00,0.0464
1696.00,0.0492
1695.00,0.0517
1694.00,0.0538
1693.00,0.0556
1692.00,0.0577
1691.00,0.0601
1690.00,0.0626
1689.00,0.0652
1688.00,0.0677
1687.00,0.0702
1686.00,0.0727
1685.00,0.0759
1684.00,0.0800
1683.00,0.0836
1682.00,0.0863
1681.00,0.0887
1680.00,0.0911
1679.00,0.0932
1678.00,0.0952
1677.00,0.0974
1676.00,0.1003
1675.00,0.1036
1674.00,0.1068
1673.00,0.1095
1672.00,0.1121
1671.00,0.1148
1670.00,0.1180
1669.00,0.1218
1668.00,0.1256
1667.00,0.1287
1666.00,0.1312
1665.00,0.1336
1664.00,0.1366
1663.00,0.1402
1662.00,0.1441
1661.00,0.1478
1660.00,0.1510
1659.00,0.1539
1658.00,0.1562
1657.00,0.1579
1656.00,0.1593
1655.00,0.1609
1654.00,0.1639
1653.00,0.1693
1652.00,0.1747
1651.00,0.1772
1650.00,0.1777
1649.00,0.1779
1648.00,0.1788
1647.00,0.1808
1646.00,0.1834
1645.00,0.1854
1644.00,0.1867
1643.00,0.1873
1642.00,0.1876
1641.00,0.1879
1640.00,0.1881
1639.00,0.1882
1638.00,0.1881
1637.00,0.1883
1636.00,0.1892
1635.00,0.1905
1634.00,0.1912
1633.00,0.1910
1632.00,0.1902
1631.00,0.1890
1630.00,0.1876
1629.00,0.1860
1628.00,0.1847
1627.00,0.1834
1626.00,0.1819
1625.00,0.1801
1624.00,0.1781
1623.00,0.1761
1622.00,0.1741
1621.00,0.1717
1620.00,0.1692
1619.00,0.1662
1618.00,0.1627
1617.00,0.1588
1616.00,0.1547
1615.00,0.1510
1614.00,0.1475
1613.00,0.1438
1612.00,0.1399
1611.00,0.1360
1610.00,0.1323
1609.00,0.1287
1608.00,0.1253
1607.00,0.1221
1606.00,0.1190
1605.00,0.1160
1604.00,0.1130
1603.00,0.1102
1602.00,0.1075
1601.00,0.1049
1600.00,0.1023
1599.00,0.0999
1598.00,0.0976
1597.00,0.0953
1596.00,0.0932
1595.00,0.0912
1594.00,0.0893
1593.00,0.0875
1592.00,0.0857
1591.00,0.0840
1590.00,0.0825
1589.00,0.0812
1588.00,0.0799
1587.00,0.0788
1586.00,0.0778
1585.00,0.0769
1584.00,0.0761
1583.00,0.0754
1582.00,0.0748
1581.00,0.0742
1580.00,0.0737
1579.00,0.0733
1578.00,0.0733
1577.00,0.0735
1576.00,0.0738
1575.00,0.0739
1574.00,0.0739
1573.00,0.0738
1572.00,0.0737
1571.00,0.0737
1570.00,0.0741
1569.00,0.0748
1568.00,0.0756
1567.00,0.0764
1566.00,0.0771
1565.00,0.0777
1564.00,0.0782
1563.00,0.0786
1562.00,0.0789
1561.00,0.0791
1560.00,0.0797
1559.00,0.0819
1558.00,0.0847
1557.00,0.0866
1556.00,0.0877
1555.00,0.0886
1554.00,0.0895
1553.00,0.0902
1552.00,0.0907
1551.00,0.0912
1550.00,0.0918
1549.00,0.0924
1548.00,0.0927
1547.00,0.0928
1546.00,0.0926
1545.00,0.0923
1544.00,0.0920
1543.00,0.0917
1542.00,0.0916
1541.00,0.0915
1540.00,0.0915
1539.00,0.0912
1538.00,0.0904
1537.00,0.0891
1536.00,0.0877
1535.00,0.0861
1534.00,0.0845
1533.00,0.0829
1532.00,0.0817
1531.00,0.0805
1530.00,0.0792
1529.00,0.0777
1528.00,0.0760
1527.00,0.0744
1526.00,0.0730
1525.00,0.0716
1524.00,0.0703
1523.00,0.0690
1522.00,0.0677
1521.00,0.0663
1520.00,0.0650
1519.00,0.0637
1518.00,0.0624
1517.00,0.0609
1516.00,0.0593
1515.00,0.0577
1514.00,0.0561
1513.00,0.0543
1512.00,0.0522
1511.00,0.0501
1510.00,0.0481
1509.00,0.0463
1508.00,0.0447
1507.00,0.0431
1506.00,0.0416
1505.00,0.0402
1504.00,0.0387
1503.00,0.0372
1502.00,0.0357
1501.00,0.0341
1500.00,0.0327
1499.00,0.0314
1498.00,0.0305
1497.00,0.0296
1496.00,0.0288
1495.00,0.0279
1494.00,0.0270
1493.00,0.0261
1492.00,0.0253
1491.00,0.0245
1490.00,0.0238
1489.00,0.0233
1488.00,0.0230
1487.00,0.0227
1486.00,0.0224
1485.00,0.0222
1484.00,0.0220
1483.00,0.0218
1482.00,0.0218
1481.00,0.0220
1480.00,0.0222
1479.00,0.0224
1478.00,0.0227
1477.00,0.0231
1476.00,0.0236
1475.00,0.0243
1474.00,0.0253
1473.00,0.0266
1472.00,0.0280
1471.00,0.0290
1470.00,0.0297
1469.00,0.0301
1468.00,0.0304
1467.00,0.0307
1466.00,0.0310
1465.00,0.0317
1464.00,0.0324
1463.00,0.0331
1462.00,0.0335
1461.00,0.0337
1460.00,0.0338
1459.00,0.0342
1458.00,0.0350
1457.00,0.0365
1456.00,0.0378
1455.00,0.0384
1454.00,0.0385
1453.00,0.0384
1452.00,0.0383
1451.00,0.0380
1450.00,0.0378
1449.00,0.0377
1448.00,0.0377
1447.00,0.0378
1446.00,0.0379
1445.00,0.0379
1444.00,0.0379
1443.00,0.0378
1442.00,0.0378
1441.00,0.0377
1440.00,0.0376
1439.00,0.0374
1438.00,0.0372
1437.00,0.0374
1436.00,0.0379
1435.00,0.0383
1434.00,0.0385
1433.00,0.0386
1432.00,0.0387
1431.00,0.0389
1430.00,0.0392
1429.00,0.0397
1428.00,0.0402
1427.00,0.0405
1426.00,0.0409
1425.00,0.0413
1424.00,0.0418
1423.00,0.0422
1422.00,0.0424
1421.00,0.0426
1420.00,0.0430
1419.00,0.0435
1418.00,0.0441
1417.00,0.0446
1416.00,0.0449
1415.00,0.0450
1414.00,0.0449
1413.00,0.0447
1412.00,0.0446
1411.00,0.0444
1410.00,0.0441
1409.00,0.0438
1408.00,0.0434
1407.00,0.0429
1406.00,0.0424
1405.00,0.0420
1404.00,0.0417
1403.00,0.0412
1402.00,0.0405
1401.00,0.0397
1400.00,0.0389
1399.00,0.0381
1398.00,0.0374
1397.00,0.0367
1396.00,0.0360
1395.00,0.0353
1394.00,0.0346
1393.00,0.0341
1392.00,0.0335
1391.00,0.0328
1390.00,0.0322
1389.00,0.0316
1388.00,0.0311
1387.00,0.0308
1386.00,0.0305
1385.00,0.0303
1384.00,0.0299
1383.00,0.0296
1382.00,0.0292
1381.00,0.0289
1380.00,0.0285
1379.00,0.0281
1378.00,0.0276
1377.00,0.0271
1376.00,0.0265
1375.00,0.0259
1374.00,0.0253
1373.00,0.0248
1372.00,0.0243
1371.00,0.0238
1370.00,0.0231
1369.00,0.0224
1368.00,0.0217
1367.00,0.0209
1366.00,0.0201
1365.00,0.0192
1364.00,0.0183
1363.00,0.0176
1362.00,0.0171
1361.00,0.0167
1360.00,0.0164
1359.00,0.0160
1358.00,0.0156
1357.00,0.0152
1356.00,0.0147
1355.00,0.0144
1354.00,0.0141
1353.00,0.0137
1352.00,0.0134
1351.00,0.0130
1350.00,0.0126
1349.00,0.0122
1348.00,0.0118
1347.00,0.0114
1346.00,0.0110
1345.00,0.0106
1344.00,0.0102
1343.00,0.0097
1342.00,0.0093
1341.00,0.0088
1340.00,0.0084
1339.00,0.0081
1338.00,0.0079
1337.00,0.0077
1336.00,0.0075
1335.00,0.0072
1334.00,0.0068
1333.00,0.0065
1332.00,0.0063
1331.00,0.0060
1330.00,0.0059
1329.00,0.0058
1328.00,0.0057
1327.00,0.0057
1326.00,0.0057
1325.00,0.0056
1324.00,0.0056
1323.00,0.0057
1322.00,0.0057
1321.00,0.0057
1320.00,0.0057
1319.00,0.0057
1318.00,0.0057
1317.00,0.0057
1316.00,0.0056
1315.00,0.0055
1314.00,0.0054
1313.00,0.0053
1312.00,0.0052
1311.00,0.0050
1310.00,0.0049
1309.00,0.0048
1308.00,0.0047
1307.00,0.0045
1306.00,0.0044
1305.00,0.0044
1304.00,0.0044
1303.00,0.0045
1302.00,0.0046
1301.00,0.0047
1300.00,0.0048
1299.00,0.0051
1298.00,0.0054
1297.00,0.0057
1296.00,0.0061
1295.00,0.0066
1294.00,0.0071
1293.00,0.0077
1292.00,0.0083
1291.00,0.0090
1290.00,0.0099
1289.00,0.0108
1288.00,0.0118
1287.00,0.0128
1286.00,0.0140
1285.00,0.0151
1284.00,0.0163
1283.00,0.0176
1282.00,0.0189
1281.00,0.0203
1280.00,0.0217
1279.00,0.0231
1278.00,0.0246
1277.00,0.0261
1276.00,0.0276
1275.00,0.0291
1274.00,0.0306
1273.00,0.0321
1272.00,0.0336
1271.00,0.0351
1270.00,0.0366
1269.00,0.0380
1268.00,0.0395
1267.00,0.0409
1266.00,0.0422
1265.00,0.0436
1264.00,0.0450
1263.00,0.0463
1262.00,0.0477
1261.00,0.0489
1260.00,0.0501
1259.00,0.0513
1258.00,0.0524
1257.00,0.0534
1256.00,0.0545
1255.00,0.0555
1254.00,0.0565
1253.00,0.0574
1252.00,0.0583
1251.00,0.0591
1250.00,0.0600
1249.00,0.0608
1248.00,0.0615
1247.00,0.0623
1246.00,0.0630
1245.00,0.0638
1244.00,0.0645
1243.00,0.0653
1242.00,0.0660
1241.00,0.0666
1240.00,0.0673
1239.00,0.0681
1238.00,0.0688
1237.00,0.0696
1236.00,0.0703
1235.00,0.0710
1234.00,0.0716
1233.00,0.0723
1232.00,0.0730
1231.00,0.0737
1230.00,0.0744
1229.00,0.0751
1228.00,0.0757
1227.00,0.0764
1226.00,0.0770
1225.00,0.0775
1224.00,0.0781
1223.00,0.0786
1222.00,0.0790
1221.00,0.0793
1220.00,0.0796
1219.00,0.0797
1218.00,0.0796
1217.00,0.0794
1216.00,0.0791
1215.00,0.0787
1214.00,0.0782
1213.00,0.0775
1212.00,0.0768
1211.00,0.0761
1210.00,0.0752
1209.00,0.0743
1208.00,0.0733
1207.00,0.0722
1206.00,0.0711
1205.00,0.0699
1204.00,0.0686
1203.00,0.0674
1202.00,0.0661
1201.00,0.0650
1200.00,0.0639
1199.00,0.0629
1198.00,0.0620
1197.00,0.0612
1196.00,0.0606
1195.00,0.0601
1194.00,0.0598
1193.00,0.0596
1192.00,0.0595
1191.00,0.0594
1190.00,0.0593
1189.00,0.0592
1188.00,0.0592
1187.00,0.0592
1186.00,0.0594
1185.00,0.0596
1184.00,0.0600
1183.00,0.0604
1182.00,0.0610
1181.00,0.0617
1180.00,0.0627
1179.00,0.0638
1178.00,0.0650
1177.00,0.0663
1176.00,0.0678
1175.00,0.0695
1174.00,0.0712
1173.00,0.0731
1172.00,0.0750
1171.00,0.0770
1170.00,0.0792
1169.00,0.0814
1168.00,0.0838
1167.00,0.0862
1166.00,0.0886
1165.00,0.0910
1164.00,0.0934
1163.00,0.0957
1162.00,0.0978
1161.00,0.0997
1160.00,0.1016
1159.00,0.1034
1158.00,0.1050
1157.00,0.1065
1156.00,0.1080
1155.00,0.1093
1154.00,0.1105
1153.00,0.1116
1152.00,0.1126
1151.00,0.1133
1150.00,0.1139
1149.00,0.1144
1148.00,0.1146
1147.00,0.1146
1146.00,0.1145
1145.00,0.1143
1144.00,0.1140
1143.00,0.1136
1142.00,0.1131
1141.00,0.1126
1140.00,0.1123
1139.00,0.1120
1138.00,0.1118
1137.00,0.1119
1136.00,0.1122
1135.00,0.1127
1134.00,0.1134
1133.00,0.1141
1132.00,0.1151
1131.00,0.1161
1130.00,0.1172
1129.00,0.1185
1128.00,0.1197
1127.00,0.1208
1126.00,0.1218
1125.00,0.1227
1124.00,0.1235
1123.00,0.1242
1122.00,0.1249
1121.00,0.1255
1120.00,0.1260
1119.00,0.1265
1118.00,0.1269
1117.00,0.1272
1116.00,0.1275
1115.00,0.1277
1114.00,0.1278
1113.00,0.1279
1112.00,0.1279
1111.00,0.1279
1110.00,0.1278
1109.00,0.1278
1108.00,0.1280
1107.00,0.1282
1106.00,0.1287
1105.00,0.1293
1104.00,0.1301
1103.00,0.1311
1102.00,0.1321
1101.00,0.1334
1100.00,0.1348
1099.00,0.1362
1098.00,0.1377
1097.00,0.1391
1096.00,0.1405
1095.00,0.1419
1094.00,0.1432
1093.00,0.1447
1092.00,0.1464
1091.00,0.1482
1090.00,0.1500
1089.00,0.1521
1088.00,0.1543
1087.00,0.1565
1086.00,0.1588
1085.00,0.1612
1084.00,0.1636
1083.00,0.1661
1082.00,0.1687
1081.00,0.1714
1080.00,0.1742
1079.00,0.1768
1078.00,0.1794
1077.00,0.1818
1076.00,0.1841
1075.00,0.1861
1074.00,0.1878
1073.00,0.1894
1072.00,0.1908
1071.00,0.1920
1070.00,0.1930
1069.00,0.1939
1068.00,0.1945
1067.00,0.1947
1066.00,0.1947
1065.00,0.1946
1064.00,0.1945
1063.00,0.1942
1062.00,0.1939
1061.00,0.1937
1060.00,0.1938
1059.00,0.1940
1058.00,0.1946
1057.00,0.1954
1056.00,0.1967
1055.00,0.1982
1054.00,0.2000
1053.00,0.2020
1052.00,0.2043
1051.00,0.2068
1050.00,0.2096
1049.00,0.2126
1048.00,0.2159
1047.00,0.2190
1046.00,0.2220
1045.00,0.2247
1044.00,0.2272
1043.00,0.2293
1042.00,0.2309
1041.00,0.2321
1040.00,0.2331
1039.00,0.2337
1038.00,0.2340
1037.00,0.2343
1036.00,0.2345
1035.00,0.2345
1034.00,0.2344
1033.00,0.2345
1032.00,0.2347
1031.00,0.2349
1030.00,0.2349
1029.00,0.2346
1028.00,0.2341
1027.00,0.2330
1026.00,0.2315
1025.00,0.2298
1024.00,0.2279
1023.00,0.2257
1022.00,0.2233
1021.00,0.2208
1020.00,0.2182
1019.00,0.2154
1018.00,0.2125
1017.00,0.2095
1016.00,0.2065
1015.00,0.2034
1014.00,0.2003
1013.00,0.1973
1012.00,0.1944
1011.00,0.1916
1010.00,0.1889
1009.00,0.1863
1008.00,0.1838
1007.00,0.1814
1006.00,0.1791
1005.00,0.1766
1004.00,0.1738
1003.00,0.1706
1002.00,0.1671
1001.00,0.1633
1000.00,0.1593
999.00,0.1550
998.00,0.1507
997.00,0.1464
996.00,0.1423
995.00,0.1384
994.00,0.1346
993.00,0.1309
992.00,0.1273
991.00,0.1237
990.00,0.1201
989.00,0.1166
988.00,0.1130
987.00,0.1095
986.00,0.1060
985.00,0.1026
984.00,0.0993
983.00,0.0963
982.00,0.0934
981.00,0.0907
980.00,0.0882
979.00,0.0858
978.00,0.0835
977.00,0.0814
976.00,0.0793
975.00,0.0772
974.00,0.0751
973.00,0.0730
972.00,0.0709
971.00,0.0687
970.00,0.0665
969.00,0.0641
968.00,0.0615
967.00,0.0586
966.00,0.0556
965.00,0.0525
964.00,0.0493
963.00,0.0462
962.00,0.0432
961.00,0.0404
960.00,0.0378
959.00,0.0354
958.00,0.0332
957.00,0.0313
956.00,0.0296
955.00,0.0281
954.00,0.0267
953.00,0.0256
952.00,0.0246
951.00,0.0238
950.00,0.0231
949.00,0.0227
948.00,0.0223
947.00,0.0221
946.00,0.0221
945.00,0.0222
944.00,0.0226
943.00,0.0232
942.00,0.0240
941.00,0.0251
940.00,0.0264
939.00,0.0278
938.00,0.0293
937.00,0.0308
936.00,0.0323
935.00,0.0336
934.00,0.0347
933.00,0.0355
932.00,0.0361
931.00,0.0364
930.00,0.0366
929.00,0.0365
928.00,0.0361
927.00,0.0354
926.00,0.0345
925.00,0.0337
924.00,0.0329
923.00,0.0322
922.00,0.0314
921.00,0.0306
920.00,0.0297
919.00,0.0287
918.00,0.0276
917.00,0.0264
916.00,0.0251
915.00,0.0238
914.00,0.0225
913.00,0.0211
912.00,0.0198
911.00,0.0184
910.00,0.0172
909.00,0.0160
908.00,0.0149
907.00,0.0139
906.00,0.0130
905.00,0.0121
904.00,0.0113
903.00,0.0105
902.00,0.0098
901.00,0.0092
900.00,0.0086
899.00,0.0080
898.00,0.0075
897.00,0.0071
896.00,0.0069
895.00,0.0067
894.00,0.0066
893.00,0.0064
892.00,0.0063
891.00,0.0061
890.00,0.0060
889.00,0.0060
888.00,0.0059
887.00,0.0058
886.00,0.0057
885.00,0.0055
884.00,0.0054
883.00,0.0052
882.00,0.0050
881.00,0.0049
880.00,0.0051
879.00,0.0054
878.00,0.0059
877.00,0.0064
876.00,0.0069
875.00,0.0075
874.00,0.0079
873.00,0.0083
872.00,0.0083
871.00,0.0079
870.00,0.0072
869.00,0.0062
868.00,0.0053
867.00,0.0045
866.00,0.0040
865.00,0.0038
864.00,0.0037
863.00,0.0037
862.00,0.0038
861.00,0.0041
860.00,0.0044
859.00,0.0048
858.00,0.0054
857.00,0.0062
856.00,0.0071
855.00,0.0080
854.00,0.0089
853.00,0.0099
852.00,0.0109
851.00,0.0119
850.00,0.0128
849.00,0.0137
848.00,0.0143
847.00,0.0148
846.00,0.0149
845.00,0.0149
844.00,0.0146
843.00,0.0142
842.00,0.0136
841.00,0.0131
840.00,0.0125
839.00,0.0120
838.00,0.0115
837.00,0.0110
836.00,0.0106
835.00,0.0102
834.00,0.0097
833.00,0.0093
832.00,0.0088
831.00,0.0083
830.00,0.0078
829.00,0.0074
828.00,0.0069
827.00,0.0065
826.00,0.0060
825.00,0.0057
824.00,0.0054
823.00,0.0053
822.00,0.0052
821.00,0.0052
820.00,0.0050
819.00,0.0049
818.00,0.0047
817.00,0.0046
816.00,0.0045
815.00,0.0046
814.00,0.0047
813.00,0.0049
812.00,0.0051
811.00,0.0054
810.00,0.0057
809.00,0.0061
808.00,0.0066
807.00,0.0070
806.00,0.0074
805.00,0.0079
804.00,0.0082
803.00,0.0085
802.00,0.0087
801.00,0.0088
800.00,0.0088
799.00,0.0087
798.00,0.0086
797.00,0.0085
796.00,0.0083
795.00,0.0080
794.00,0.0076
793.00,0.0072
792.00,0.0068
791.00,0.0066
790.00,0.0064
789.00,0.0063
788.00,0.0063
787.00,0.0062
786.00,0.0062
785.00,0.0063
784.00,0.0064
783.00,0.0066
782.00,0.0069
781.00,0.0073
780.00,0.0077
779.00,0.0081
778.00,0.0083
777.00,0.0084
776.00,0.0085
775.00,0.0084
774.00,0.0084
773.00,0.0082
772.00,0.0080
771.00,0.0076
770.00,0.0072
769.00,0.0069
768.00,0.0065
767.00,0.0062
766.00,0.0059
765.00,0.0056
764.00,0.0052
763.00,0.0050
762.00,0.0048
761.00,0.0047
760.00,0.0047
759.00,0.0047
758.00,0.0047
757.00,0.0046
756.00,0.0046
755.00,0.0046
754.00,0.0047
753.00,0.0050
752.00,0.0054
751.00,0.0060
750.00,0.0067
749.00,0.0075
748.00,0.0084
747.00,0.0092
746.00,0.0100
745.00,0.0106
744.00,0.0112
743.00,0.0117
742.00,0.0122
741.00,0.0125
740.00,0.0128
739.00,0.0128
738.00,0.0127
737.00,0.0127
736.00,0.0127
735.00,0.0127
734.00,0.0125
733.00,0.0123
732.00,0.0122
731.00,0.0122
730.00,0.0123
729.00,0.0124
728.00,0.0126
727.00,0.0129
726.00,0.0131
725.00,0.0133
724.00,0.0136
723.00,0.0138
722.00,0.0139
721.00,0.0139
720.00,0.0138
719.00,0.0136
718.00,0.0134
717.00,0.0133
716.00,0.0133
715.00,0.0133
714.00,0.0132
713.00,0.0132
712.00,0.0133
711.00,0.0136
710.00,0.0140
709.00,0.0144
708.00,0.0148
707.00,0.0153
706.00,0.0158
705.00,0.0162
704.00,0.0166
703.00,0.0168
702.00,0.0170
701.00,0.0172
700.00,0.0174
699.00,0.0175
698.00,0.0173
697.00,0.0170
696.00,0.0166
695.00,0.0160
694.00,0.0154
693.00,0.0146
692.00,0.0137
691.00,0.0127
690.00,0.0119
689.00,0.0112
688.00,0.0105
687.00,0.0100
686.00,0.0095
685.00,0.0091
684.00,0.0089
683.00,0.0087
682.00,0.0085
681.00,0.0084
680.00,0.0085
679.00,0.0087
678.00,0.0090
677.00,0.0095
676.00,0.0102
675.00,0.0111
674.00,0.0122
673.00,0.0135
672.00,0.0145
671.00,0.0148
670.00,0.0144
669.00,0.0143
668.00,0.0155
667.00,0.0172
666.00,0.0177
665.00,0.0170
664.00,0.0159
663.00,0.0150
662.00,0.0144
661.00,0.0142
660.00,0.0141
659.00,0.0140
658.00,0.0138
657.00,0.0135
656.00,0.0131
655.00,0.0126
654.00,0.0121
653.00,0.0117
652.00,0.0113
651.00,0.0109
650.00,0.0105
649.00,0.0100
648.00,0.0094
647.00,0.0087
646.00,0.0079
645.00,0.0072
644.00,0.0068
643.00,0.0066
642.00,0.0062
641.00,0.0058
640.00,0.0053
639.00,0.0049
638.00,0.0045
637.00,0.0042
636.00,0.0042
635.00,0.0043
634.00,0.0045
633.00,0.0049
632.00,0.0055
631.00,0.0062
630.00,0.0067
629.00,0.0073
628.00,0.0081
627.00,0.0089
626.00,0.0097
625.00,0.0105
624.00,0.0113
623.00,0.0122
622.00,0.0130
621.00,0.0138
620.00,0.0147
619.00,0.0154
618.00,0.0160
617.00,0.0166
616.00,0.0173
615.00,0.0180
614.00,0.0188
613.00,0.0195
612.00,0.0203
611.00,0.0212
610.00,0.0220
609.00,0.0231
608.00,0.0244
607.00,0.0259
606.00,0.0273
605.00,0.0290
604.00,0.0308
603.00,0.0327
602.00,0.0343
601.00,0.0358
600.00,0.0372
599.00,0.0383
598.00,0.0389
597.00,0.0391
596.00,0.0386
595.00,0.0375
594.00,0.0360
593.00,0.0345
592.00,0.0335
591.00,0.0328
590.00,0.0324
589.00,0.0323
588.00,0.0327
587.00,0.0333
586.00,0.0337
585.00,0.0340
584.00,0.0342
583.00,0.0344
582.00,0.0346
581.00,0.0349
580.00,0.0354
579.00,0.0358
578.00,0.0360
577.00,0.0363
576.00,0.0364
575.00,0.0361
574.00,0.0351
573.00,0.0342
572.00,0.0336
571.00,0.0333
570.00,0.0326
569.00,0.0316
568.00,0.0306
567.00,0.0296
566.00,0.0289
565.00,0.0285
564.00,0.0283
563.00,0.0279
562.00,0.0270
561.00,0.0260
560.00,0.0253
559.00,0.0248
558.00,0.0242
557.00,0.0236
556.00,0.0231
555.00,0.0226
554.00,0.0220
553.00,0.0215
552.00,0.0212
551.00,0.0211
550.00,0.0211
549.00,0.0215
548.00,0.0222
547.00,0.0227
546.00,0.0227
545.00,0.0223
544.00,0.0221
543.00,0.0221
542.00,0.0223
541.00,0.0227
540.00,0.0232
539.00,0.0234
538.00,0.0229
537.00,0.0224
536.00,0.0225
535.00,0.0232
534.00,0.0240
533.00,0.0246
532.00,0.0248
531.00,0.0246
530.00,0.0244
529.00,0.0245
528.00,0.0250
527.00,0.0257
526.00,0.0262
525.00,0.0268
524.00,0.0274
523.00,0.0276
522.00,0.0272
521.00,0.0271
520.00,0.0276
519.00,0.0286
518.00,0.0292
517.00,0.0296
516.00,0.0299
515.00,0.0296
514.00,0.0285
513.00,0.0271
512.00,0.0259
511.00,0.0248
510.00,0.0234
509.00,0.0216
508.00,0.0195
507.00,0.0173
506.00,0.0151
505.00,0.0131
504.00,0.0118
503.00,0.0108
502.00,0.0101
501.00,0.0097
500.00,0.0096
499.00,0.0093
498.00,0.0086
497.00,0.0078
496.00,0.0073
495.00,0.0069
494.00,0.0064
493.00,0.0058
492.00,0.0054
491.00,0.0049
490.00,0.0043
489.00,0.0037
488.00,0.0033
487.00,0.0031
486.00,0.0031
485.00,0.0035
484.00,0.0040
483.00,0.0041
482.00,0.0035
481.00,0.0032
480.00,0.0036
479.00,0.0039
478.00,0.0035
477.00,0.0030
476.00,0.0030
475.00,0.0027
474.00,0.0019
473.00,0.0018
472.00,0.0036
471.00,0.0060
470.00,0.0070
469.00,0.0063
468.00,0.0053
467.00,0.0042
466.00,0.0030
465.00,0.0021
464.00,0.0019
463.00,0.0016
462.00,0.0003
461.00,-0.0016
460.00,-0.0030
459.00,-0.0044
458.00,-0.0070
457.00,-0.0107
456.00,-0.0147
455.00,-0.0191
454.00,-0.0238
453.00,-0.0280
452.00,-0.0311
451.00,-0.0339
450.00,-0.0373
